File: Experimentelles/Rohdaten/Batteriemessungen/AlteZelle/Studenten_Batterietests/SemArbeitToph/ECLab-Export/Al_rein_01_PEIS_only_02_OCV_C01.mpt
EC-Lab ASCII FILE
Nb header lines : 43

Open Circuit Voltage

Run on channel : 1 (SN 6985)
Grouped channel(s) : 1
User :
CE vs. WE compliance from -10 V to 10 V
Electrode connection : standard
Ewe ctrl range : min = -10,00 V, max = 10,00 V
Acquisition started on : 03.12.2015 18:32:00
Saved on :
	File : Al_rein_01_PEIS_only_02_OCV_C01.mpr
	Directory : C:\Hupfer\Studenten Batterietests\SemArbeitToph\
	Host : 192.168.0.2
Device : VMP3 (SN 0324)
Address : 192.168.0.1
EC-Lab for windows v10.33 (software)
Internet server v10.33 (firmware)
Command interpretor v10.32 (firmware)
Electrode material :
Initial state :
Electrolyte :
Comments :
Mass of active material : 0,001 mg
 at x = 0,000
Molecular weight of active material (at x = 0) : 0,001 g/mol
Atomic weight of intercalated ion : 0,001 g/mol
Acquisition started at : xo = 0,000
Number of e- transfered per intercalated ion : 1
for DX = 1, DQ = 26,801 mA.h
Battery capacity : 0,000 A.h
Electrode surface area : 0,001 cm²
Characteristic mass : 0,001 g
tR (h:m:s)          0:10:0,0000
dER/dt (mV/h)       1,0
dER (mV)            1,00
dtR (s)             0,5000
E range min (V)     -10,000
E range max (V)     10,000

mode	error	time/s	Ewe/V
3	0	10,1544	0,0200291462
3	0	12,6544	0,0192080643
3	0	15,1544	0,0189025458
3	0	17,6544	0,0188834518
3	0	20,1544	0,0186925028
3	0	22,6544	0,0185779333
3	0	25,1544	0,0185206477
3	0	27,6544	0,0184633639
3	0	30,1544	0,0184251741
3	0	32,6544	0,0184251741
3	0	35,1544	0,0183869842
3	0	37,6544	0,0182915088
3	0	40,1544	0,018253319
3	0	42,6544	0,0181769393
3	0	45,1544	0,0182915088
3	0	47,6544	0,0181769393
3	0	50,1544	0,0181005597
3	0	52,6544	0,0182724148
3	0	55,1544	0,0181578454
3	0	57,6544	0,0181196555
3	0	60,1544	0,0180814657
3	0	62,6544	0,0181769393
3	0	65,1544	0,0180814657
3	0	67,6544	0,0180623699
3	0	70,1544	0,0179478005
3	0	72,6544	0,0179478005
3	0	75,1544	0,0179668963
3	0	77,6544	0,0179096106
3	0	80,1544	0,0178905167
3	0	82,6544	0,0178905167
3	0	85,1544	0,0180241801
3	0	87,6544	0,017814137
3	0	90,1544	0,0179287065
3	0	92,6544	0,0177950412
3	0	95,1544	0,0178905167
3	0	97,6544	0,0179287065
3	0	100,1544	0,0179287065
3	0	102,6544	0,0177377574
3	0	105,1544	0,0179478005
3	0	107,6544	0,0177759472
3	0	110,1544	0,0177377574
3	0	112,6544	0,0177950412
3	0	115,1544	0,0176995676
3	0	117,6544	0,0177186616
3	0	120,1544	0,0176422819
3	0	122,6544	0,0177950412
3	0	125,1544	0,0176804718
3	0	127,6544	0,0176804718
3	0	130,1544	0,0176613778
3	0	132,6544	0,017623188
3	0	135,1544	0,017623188
3	0	137,6544	0,0176422819
3	0	140,1544	0,017623188
3	0	142,6544	0,0177186616
3	0	145,1544	0,017623188
3	0	147,6544	0,0175277125
3	0	150,1544	0,0176040921
3	0	152,6544	0,017623188
3	0	155,1544	0,0177186616
3	0	157,6544	0,0176040921
3	0	160,1544	0,0176613778
3	0	162,6544	0,0174895227
3	0	165,1544	0,0175659023
3	0	167,6544	0,0175849982
3	0	170,1544	0,0175468083
3	0	172,6544	0,0175468083
3	0	175,1544	0,0175086185
3	0	177,6544	0,0174704287
3	0	180,1544	0,0174895227
3	0	182,6544	0,0174513329
3	0	185,1544	0,0175277125
3	0	187,6544	0,0175849982
3	0	190,1544	0,0174513329
3	0	192,6544	0,0174704287
3	0	195,1544	0,0174704287
3	0	197,6544	0,0175086185
3	0	200,1544	0,0173940491
3	0	202,6544	0,0174513329
3	0	205,1544	0,0173940491
3	0	207,6544	0,0174895227
3	0	210,1544	0,0173940491
3	0	212,6544	0,0173749533
3	0	215,1544	0,0175277125
3	0	217,6544	0,0173176695
3	0	220,1544	0,0173749533
3	0	222,6544	0,0174895227
3	0	225,1544	0,0173367634
3	0	227,6544	0,0174513329
3	0	230,1544	0,0174322389
3	0	232,6544	0,0173176695
3	0	235,1544	0,0174131431
3	0	237,6544	0,0173558593
3	0	240,1544	0,0173558593
3	0	242,6544	0,0172794797
3	0	245,1544	0,0172031
3	0	247,6544	0,0172794797
3	0	250,1544	0,0172603838
3	0	252,6544	0,0171840042
3	0	255,1544	0,0172985736
3	0	257,6544	0,0172794797
3	0	260,1544	0,0172603838
3	0	262,6544	0,0173558593
3	0	265,1544	0,017222194
3	0	267,6544	0,0171840042
3	0	270,1544	0,0172412898
3	0	272,6544	0,0172985736
3	0	275,1544	0,0173176695
3	0	277,6544	0,0173176695
3	0	280,1544	0,0170694347
3	0	282,6544	0,0173749533
3	0	285,1544	0,0172985736
3	0	287,6544	0,0173176695
3	0	290,1544	0,0171840042
3	0	292,6544	0,0172603838
3	0	295,1544	0,0172031
3	0	297,6544	0,0172031
3	0	300,1544	0,0171458144
3	0	302,6544	0,0171458144
3	0	305,1544	0,0171458144
3	0	307,6544	0,0170885306
3	0	310,1544	0,0171267204
3	0	312,6544	0,0170885306
3	0	315,1544	0,0170503408
3	0	317,6544	0,0171840042
3	0	320,1544	0,0169739611
3	0	322,6544	0,0171458144
3	0	325,1544	0,0171076246
3	0	327,6544	0,017012151
3	0	330,1544	0,0172412898
3	0	332,6544	0,0170503408
3	0	335,1544	0,0170503408
3	0	337,6544	0,0170312449
3	0	340,1544	0,0170312449
3	0	342,6544	0,0171267204
3	0	345,1544	0,0170312449
3	0	347,6544	0,0170885306
3	0	350,1544	0,0170312449
3	0	352,6544	0,0169357713
3	0	355,1544	0,0171267204
3	0	357,6544	0,0168975815
3	0	360,1544	0,0169357713
3	0	362,6544	0,017012151
3	0	365,1544	0,0169930551
3	0	367,6544	0,0169930551
3	0	370,1544	0,0168975815
3	0	372,6544	0,0170503408
3	0	375,1544	0,0169548653
3	0	377,6544	0,0168784857
3	0	380,1544	0,0169548653
3	0	382,6544	0,017012151
3	0	385,1544	0,017012151
3	0	387,6544	0,0169930551
3	0	390,1544	0,0169166755
3	0	392,6544	0,0169930551
3	0	395,1544	0,0169166755
3	0	397,6544	0,0169739611
3	0	400,1544	0,0169548653
3	0	402,6544	0,0169739611
3	0	405,1544	0,0169166755
3	0	407,6544	0,0169357713
3	0	410,1544	0,0170503408
3	0	412,6544	0,0169548653
3	0	415,1544	0,0168975815
3	0	417,6544	0,0169357713
3	0	420,1544	0,0169166755
3	0	422,6544	0,0169357713
3	0	425,1544	0,0169930551
3	0	427,6544	0,0168975815
3	0	430,1544	0,0169548653
3	0	432,6544	0,0169548653
3	0	435,1544	0,0168784857
3	0	437,6544	0,0168593917
3	0	440,1544	0,017012151
3	0	442,6544	0,0169357713
3	0	445,1544	0,0168975815
3	0	447,6544	0,0168402959
3	0	450,1544	0,0169357713
3	0	452,6544	0,0170503408
3	0	455,1544	0,0169166755
3	0	457,6544	0,0168784857
3	0	460,1544	0,0168212019
3	0	462,6544	0,0168402959
3	0	465,1544	0,0168021061
3	0	467,6544	0,0168212019
3	0	470,1544	0,0168212019
3	0	472,6544	0,0168212019
3	0	475,1544	0,0167830121
3	0	477,6544	0,0168212019
3	0	480,1544	0,0167066325
3	0	482,6544	0,0167448223
3	0	485,1544	0,0166875366
3	0	487,6544	0,0167066325
3	0	490,1544	0,0167448223
3	0	492,6544	0,0168593917
3	0	495,1544	0,0166875366
3	0	497,6544	0,0167830121
3	0	500,1544	0,0168402959
3	0	502,6544	0,0166684426
3	0	505,1544	0,0167830121
3	0	507,6544	0,0167448223
3	0	510,1544	0,0167639162
3	0	512,6544	0,0168402959
3	0	515,1544	0,0166684426
3	0	517,6544	0,0167448223
3	0	520,1544	0,0166684426
3	0	522,6544	0,0167448223
3	0	525,1544	0,0166875366
3	0	527,6544	0,0167257264
3	0	530,1544	0,0167639162
3	0	532,6544	0,0167639162
3	0	535,1544	0,0167257264
3	0	537,6544	0,0168021061
3	0	540,1544	0,0166493468
3	0	542,6544	0,016592063
3	0	545,1544	0,0167257264
3	0	547,6544	0,0166302528
3	0	550,1544	0,016611157
3	0	552,6544	0,0165729672
3	0	555,1544	0,0167066325
3	0	557,6544	0,0167448223
3	0	560,1544	0,0168402959
3	0	562,6544	0,0166684426
3	0	565,1544	0,0166684426
3	0	567,6544	0,0165538732
3	0	570,1544	0,016611157
3	0	572,6544	0,0166684426
3	0	575,1544	0,0166302528
3	0	577,6544	0,016611157
3	0	580,1544	0,0166302528
3	0	582,6544	0,016611157
3	0	585,1544	0,0164202079
3	0	587,6544	0,016592063
3	0	590,1544	0,0165156834
3	0	592,6544	0,016592063
3	0	595,1544	0,016611157
3	0	597,6544	0,0165729672
3	0	600,1544	0,0165347774
3	0	602,6544	0,0165538732
3	0	605,1544	0,0165538732
3	0	607,6544	0,0165538732
3	0	610,1544	0,0165156834