File: Experimentelles/Rohdaten/Batteriemessungen/AlteZelle/Studenten_Batterietests/SemArbeitToph/ECLab-Export/Al_rein_01_01_GCPL_C01.mpt
EC-Lab ASCII FILE
Nb header lines : 68

Galvanostatic Cycling with Potential Limitation

Run on channel : 1 (SN 6985)
Grouped channel(s) : 1
User :
CE vs. WE compliance from -10 V to 10 V
Electrode connection : standard
Ewe ctrl range : min = -10,00 V, max = 10,00 V
Acquisition started on : 03.11.2015 14:10:58
Saved on :
	File : Al_rein_01_01_GCPL_C01.mpr
	Directory : C:\Hupfer\Studenten Batterietests\SemArbeitToph\
	Host : 192.168.0.2
Device : VMP3 (SN 0324)
Address : 192.168.0.1
EC-Lab for windows v10.33 (software)
Internet server v10.33 (firmware)
Command interpretor v10.32 (firmware)
Electrode material :
Initial state :
Electrolyte :
Comments :
Mass of active material : 0,001 mg
 at x = 0,000
Molecular weight of active material (at x = 0) : 0,001 g/mol
Atomic weight of intercalated ion : 0,001 g/mol
Acquisition started at : xo = 0,000
Number of e- transfered per intercalated ion : 1
for DX = 1, DQ = 26,801 mA.h
Battery capacity : 0,000 A.h
Electrode surface area : 0,001 cm²
Characteristic mass : 0,001 g
Ns                  0                   1
Set I/C             I                   I
Is                  0,000               100,000
unit Is             mA                  µA
vs.                 <None>              <None>
N                   1                   1
I sign              > 0                 > 0
t1 (h:m:s)          0:00:0,0000         10:00:0,0000
I Range             1 A                 1 A
Bandwidth           5                   5
dE1 (mV)            0,00                10,00
dt1 (s)             0,0000              10,0000
EM (V)              0,000               4,200
tM (h:m:s)          0:00:0,0000         1:00:0,0000
Im                  0,000               0,000
unit Im             mA                  mA
E range min (V)     -10,000             -10,000
E range max (V)     10,000              10,000
dq                  0,000               1,000
unit dq             mA.h                mA.h
dtq (s)             0,0000              120,0000
dQM                 0,000               0,000
unit dQM            mA.h                mA.h
dxM                 0,000               0,000
tR (h:m:s)          0:00:0,0000         0:15:0,0000
dER/dt (mV/h)       0,0                 0,1
dER (mV)            0,00                5,00
dtR (s)             1,0000              120,0000
EL (V)              pass                4,200
goto Ns'            0                   0
nc cycles           0                   0

mode	ox/red	error	control changes	Ns changes	counter inc.	Ns	time/s	control/V/mA	Ewe/V	dq/mA.h	<I>/mA	P/W	(Q-Qo)/mA.h	x	Capacity/mA.h
1	1	1	1	1	0	1	0,0004	0,100000001	1,32104957	0	0	0	0	0	0
1	1	0	1	0	0	1	1503,6512	0,100000001	0,169645727	0,00022641661960797178	0,34096036609213274	5,78424697E-005	0,14200193913255413	-0,0052982832726733254	0,14200260691796848
1	1	0	1	0	0	1	3032,4367	0,100000001	1,36452866	0,00094321670491993421	0,33955802234913344	0,000463336648	0,28657663248525206	-0,010692559464405054	0,2865780027218417
1	1	0	1	0	0	1	5312,4367	0,100000001	1,61373627	0,00094559502813551168	0,34041421425024493	0,000549338758	0,50184284000826208	-0,01872443109558279	0,50184421024485171
1	1	0	1	0	0	1	7032,4543	0,100000001	0,941079974	1,3032996945910984E-005	0,34048468487782682	0,000320423307	0,66473946328505254	-0,02480232312687919	0,66474100768151603
1	1	0	1	0	0	1	9131,0580	0,100000001	0,0866401643	0,0009483684428433577	0,3414126435571577	2,95800473E-005	0,86359385988003686	-0,032221848026417818	0,8635955301172471
1	1	0	1	0	0	1	10161,9722	0,100000001	0,990936756	4,5570741924974656E-008	0,27342445845713069	0,000270946359	0,96135742221518234	-0,035869537981649626	0,9613603209170871
1	1	0	1	0	0	1	11411,2056	0,100000001	0,960060298	0,00095156203972134323	0,34256233844715206	0,000328880502	1,0795994613659667	-0,040281307440477843	1,079603513288816
1	1	0	1	0	0	1	12719,1256	0,100000001	0,987346947	0,00094495397643248243	0,34018343563436032	0,000335879071	1,203360803605201	-0,044899009518318054	1,2033649043295011
1	1	0	1	0	0	1	14071,1546	0,100000001	0,373235613	5,5577918059296083E-008	0,25010063758490586	9,33464617E-005	1,330808763678283	-0,04965426426424951	1,3308136228805827
1	1	0	1	0	0	1	14077,2978	0,100000001	0,41558814	1,8654039998849232E-007	0,37308080336953152	0,00015504795	1,331388529240861	-0,049675896096892378	1,3313935242123178
1	1	0	1	0	0	1	14078,1032	0,100000001	0,48387152	2,5307345224751366E-007	0,35040939838811117	0,000169553125	1,331464664485612	-0,049678736805238976	1,331469659457069
1	1	0	1	0	0	1	14083,0992	0,100000001	0,572567403	1,1743813090854221E-007	2,1138865635605165	0,00121034251	1,3319354482523429	-0,049696302380551206	1,3319407691174403
1	1	0	1	0	0	1	15702,4832	0,100000001	1,19952953	0,0009383208223010103	0,33779550011811917	0,000405195664	1,4845601605987645	-0,05539093560430441	1,4845659890675219
1	1	0	1	0	0	1	16567,2249	0,100000001	0,379135966	7,4177521301640397E-007	0,32565741419601069	0,000123468431	1,5659093024764675	-0,058426181462846016	1,5659173319760774
1	1	0	1	0	0	1	17323,1535	0,100000001	1,10489523	0,00093175092522634394	0,33543033714260384	0,000370615395	1,6371300437614096	-0,061083523077492301	1,637139237217463
1	1	0	1	0	0	1	19378,2051	0,100000001	1,42141235	0,00095825915773047347	0,34497330095962893	0,00049034931	1,8318992788329251	-0,068350625108032218	1,8319087347966461
1	1	0	1	0	0	1	21657,6239	0,100000001	1,58795822	0,0009522317161535223	0,34280342196565536	0,000544357521	2,0492466507256432	-0,076460147779999014	2,0492561066893642
1	1	0	1	0	0	1	22828,7381	0,100000001	0,801744461	0,00096060143510003891	0,34581652082288147	0,000277256477	2,1609117205406285	-0,080626521670079245	2,1609229904094138
1	1	0	1	0	0	1	24875,2366	0,100000001	0,50271821	-5,1886484854751162E-009	-0,093395668302495872	4,69517036E-005	2,3554997626735891	-0,087886863148465178	2,3555112055465642
1	1	0	1	0	0	1	26219,1176	0,100000001	0,293628961	1,4013392147090699E-007	0,3153013312747223	9,25816057E-005	2,4834206775654941	-0,09265976447458144	2,4834321209208122
1	1	0	1	0	0	1	26223,4502	0,100000001	0,390382856	2,8463748925262026E-007	0,36596249352498221	0,00014286548	2,483833268985777	-0,092675158815207258	2,4838447170641328
1	1	0	1	0	0	1	26239,4208	0,100000001	0,436306119	2,133814042641057E-007	0,32007211060047494	0,000139649419	2,4853556444638186	-0,092731960691148582	2,4853670925421744
1	1	0	1	0	0	1	26240,4874	0,100000001	0,421373874	7,2428481446372134E-008	0,43457091019614918	0,000183116834	2,485457542894288	-0,092735762658593306	2,4854689909726438
1	1	0	1	0	0	1	27011,3576	0,100000001	0,81715405	0,0009508096695707904	0,34229148518967379	0,000279704866	2,5585628808278851	-0,095463421108068032	2,558574328906241
1	1	0	1	0	0	1	29245,6980	0,100000001	1,19481313	0,00095712300529744883	0,3445642860787881	0,000411689922	2,7725385852564858	-0,10344714233369349	2,7725500333348419
1	1	0	1	0	0	1	31102,4780	0,100000001	1,28138947	0,00095418561653047795	0,34350682610987571	0,000440166041	2,9500994036036198	-0,11007217519928438	2,9501111735928262
1	1	0	1	0	0	1	32656,6456	0,100000001	0,761874259	0,00094853913098739251	0,34147409128975418	0,000260160334	3,0984350856308198	-0,11560677893516485	3,0984476369395219
1	1	0	1	0	0	1	34548,8524	0,100000001	1,25673795	3,2587722940577402E-005	0,3422281282743216	0,00043009108	3,277803679930727	-0,1222992623521343	3,2778162312394291
1	1	0	0	0	0	1	37043,6158	0,100000001	1,46911144	0,00096144038565208512	0,34611853819005459	0,000508486701	3,4298007089780768	-0,12797047586806998	3,4298132602867789
1	1	0	0	0	0	1	39323,6158	0,100000001	1,65162063	0,00096682536208629606	0,34805712970275968	0,000574858335	3,649782904988	-0,1361783073704084	3,6497954562967021
1	1	0	0	0	0	1	41603,6158	0,100000001	1,74195862	0,0009621220777614249	0,34636394734895981	0,000603351684	3,8702055502068045	-0,14440257262492042	3,8702181015155066
1	1	0	0	0	0	1	43883,6158	0,100000001	1,80256581	0,00095820261536290253	0,34495294088811994	0,000621800369	4,0886178489493427	-0,15255182914946342	4,0886304002580454
1	1	0	0	0	0	1	46163,6158	0,100000001	1,85332012	0,00097339243249512371	0,35042127504553408	0,00064944278	4,3087650903405958	-0,16076581871688512	4,3087776416492979
1	1	0	0	0	0	1	48443,6158	0,100000001	1,88944769	0,00096992319027665587	0,3491723478492119	0,000659742858	4,5311779083591104	-0,16906433999437011	4,5311904596678125
1	1	0	0	0	0	1	50723,6158	0,100000001	1,91652417	0,00096552028823064435	0,34758730311560013	0,000666159496	4,7526227145183072	-0,17732674344787821	4,7526352658270099
1	1	0	0	0	0	1	53003,6158	0,100000001	1,94022095	0,00097389954888820659	0,35060383694670381	0,000680248893	4,9727638867682662	-0,18554050656747821	4,972776438076969
1	1	0	0	0	0	1	55283,6158	0,100000001	1,96687746	0,00097937676022615706	0,35257563302469331	0,000693473092	5,1941279016768877	-0,19379989559080234	5,1941404529855904
1	1	0	0	0	0	1	57563,6158	0,100000001	1,98528504	0,00098851969929039462	0,35586709108168794	0,000706497638	5,4176409214462086	-0,20213946687484691	5,4176534727549114
1	1	0	0	0	0	1	59843,6158	0,100000001	1,99403048	0,00097123073788815078	0,34964306498847328	0,000697198906	5,6398527008197261	-0,21043048713018774	5,6398652521284288
1	1	0	0	0	0	1	61978,6180	0,100000001	0,288473338	4,3529152042335936E-009	0,078352469954662067	2,26025986E-005	5,8466621281896704	-0,21814682492359277	5,8466746794983731
1	1	0	0	0	0	1	62411,8052	0,100000001	0,650512755	4,0086975693702701E-007	0,36078277460722272	0,000234693798	5,88848779789424	-0,21970739689548125	5,8885005905740326
1	1	0	0	0	0	1	62479,0256	0,100000001	0,92740804	9,653784334659575E-009	0,17376810977033002	0,000161153948	5,8949635815323814	-0,219949017089804	5,8949764763136691
1	1	0	0	0	0	1	62488,4840	0,100000001	1,0049907	3,0969480673472083E-008	0,27872531282250672	0,000280116335	5,8958802246517837	-0,21998321827702867	5,8958931373939955
1	1	0	0	0	0	1	62989,1538	0,100000001	1,17692125	0,00096602139721976384	0,3477677023513472	0,0004092952	5,9442565585322893	-0,22178820433678301	5,9442694745839706
1	1	0	0	0	0	1	65187,6488	0,100000001	0,18385233	0,00096283840207258854	0,3466218241004985	6,37272315E-005	6,1578672169274522	-0,22975830520409133	6,1578801329791334
1	1	0	0	0	0	1	67086,0224	0,100000001	0,447132915	0,00096739549433191616	0,34825549587982189	0,000155716494	6,3429644622235533	-0,23666453229198195	6,3429773782752346
1	1	0	0	0	0	1	69366,0675	0,100000001	0,919636428	0,0009580793936774135	0,34490176592322688	0,000317184225	6,5623080506617114	-0,2448485364872008	6,5623209667133939
1	1	0	0	0	0	1	71516,7608	0,100000001	0,199815676	0,00097090643684069312	0,34951940954281018	6,98394579E-005	6,7702913835723891	-0,25260867427466339	6,7703042996240717
1	1	0	1	0	0	1	74550,0155	0,100000001	0,127877191	0,00097978680621584269	0,35271628000639571	4,5104367E-005	6,9780389393922547	-0,26036001490186205	6,9780518554439373
1	1	0	1	0	0	1	76828,3289	0,100000001	0,0904129744	0,00096766371860520704	0,34835205398010246	3,14955469E-005	7,1996242475853453	-0,2686276606751617	7,1996371636370278
1	1	0	1	0	0	1	79108,3740	0,100000001	0,0838634223	0,00096408669189694861	0,34706434924926035	2,91060041E-005	7,4197634501786598	-0,27684135030422406	7,4197763662303424
1	1	0	1	0	0	1	81388,4191	0,100000001	0,0815911293	0,00097755514041665523	0,35191289488745536	2,87129697E-005	7,6412352290767821	-0,28510476014688669	7,6412481451284646
1	1	0	1	0	0	1	83668,4641	0,100000001	0,0781349465	0,00098016599502497267	0,35285278426501562	2,75701332E-005	7,8645306009549542	-0,29343621069548179	7,8645435170066368
1	1	0	1	0	0	1	85948,5092	0,100000001	0,0750415772	0,00096945717935181325	0,34899768780384653	2,61893365E-005	8,0872238131799309	-0,3017451938578039	8,0872367292316122
1	1	0	1	0	0	1	88228,5542	0,100000001	0,0721964315	0,00096872883992311027	0,34873549080719245	2,51774582E-005	8,3082443619484659	-0,30999176769764627	8,3082572780001485
1	1	0	1	0	0	1	90508,5993	0,100000001	0,0715472102	0,00096562641778671091	0,34761864091285664	2,4871144E-005	8,5290729097057037	-0,31823117772160909	8,5290858257573862
1	1	0	1	0	0	1	92788,6444	0,100000001	0,0704206079	0,00097864429229415117	0,35230498222376858	2,48095312E-005	8,7504199884780685	-0,32648993483491859	8,750432904529751
1	1	0	1	0	0	1	95068,6894	0,100000001	0,071394451	0,00097489481059710195	0,35095519507755066	2,50562534E-005	8,9714164444404019	-0,33473560973976845	8,9714293604920845
1	1	0	1	0	0	1	97348,7345	0,100000001	0,0733612254	0,00098001792422102554	0,35279947952982701	2,58818018E-005	9,1936870975332378	-0,34302882665273357	9,193700013584919
1	1	0	1	0	0	1	99626,5595	0,100000001	0,071394451	0,0007627258217061559	0,35292326723596525	2,51967631E-005	9,4158987244544333	-0,35131984121987328	9,4159116405061146