File: Experimentelles/Rohdaten/Batteriemessungen/AlteZelle/Studenten_Batterietests/SemArbeitToph/ECLab-Export/Al_rein_02_Laden_IS_02_PEIS_C01.mpt
EC-Lab ASCII FILE
Nb header lines : 65

Potentio Electrochemical Impedance Spectroscopy

Run on channel : 1 (SN 6985)
Grouped channel(s) : 1
User :
CE vs. WE compliance from -10 V to 10 V
Electrode connection : standard
Ewe ctrl range : min = -10,00 V, max = 10,00 V
Acquisition started on : 03.18.2015 16:28:12
Saved on :
	File : Al_rein_02_Laden_IS_02_PEIS_C01.mpr
	Directory : C:\Hupfer\Studenten Batterietests\SemArbeitToph\
	Host : 192.168.0.2
Device : VMP3 (SN 0324)
Address : 192.168.0.1
EC-Lab for windows v10.33 (software)
Internet server v10.33 (firmware)
Command interpretor v10.32 (firmware)
Electrode material :
Initial state :
Electrolyte :
Comments :
Mass of active material : 0,001 mg
 at x = 0,000
Molecular weight of active material (at x = 0) : 0,001 g/mol
Atomic weight of intercalated ion : 0,001 g/mol
Acquisition started at : xo = 0,000
Number of e- transfered per intercalated ion : 1
for DX = 1, DQ = 26,801 mA.h
Battery capacity : 0,000 A.h
Electrode surface area : 0,001 cm²
Characteristic mass : 0,001 g
Multi Sine          0
E (V)               0,0000
vs.                 Eoc
tE (h:m:s)          0:00:0,0000
record              0
dI                  0,000
unit dI             mA
dt (s)              0,000
fi                  1,000
unit fi             MHz
ff                  500,000
unit ff             mHz
Sel Nd              1
Nd                  6
Nt                  51
Log                 1
Va (mV)             10,0
pw                  0,10
Na                  2
E range min (V)     -10,000
E range max (V)     10,000
I Range             Auto
Bandwidth           5
corr                0
nc cycles           0
goto Ns'            0
nr cycles           0
inc. cycle          0

freq/Hz	Re(Z)/Ohm	-Im(Z)/Ohm	|Z|/Ohm	Phase(Z)/deg	time/s	<Ewe>/V	<I>/mA	Cs/µF	Cp/µF	cycle number	I Range	|Ewe|/V	|I|/A	Re(Y)/Ohm-1	Im(Y)/Ohm-1	|Y|/Ohm-1	Phase(Y)/deg
1000024,25	289,452972	218,048615	362,392365	-36,9911804	62,9310	4,19776106	0,0498101078	0,000729888096	0,000264243834	1	11	0,00392242242	1,08236891E-005	0,00220404239	0,00166033325	0,0027594401	36,9911804
675622,438	275,186279	143,504471	310,356293	-27,5411949	63,2450	4,19958401	0,053843949	0,00164153683	0,000350962247	1	11	0,0102538085	3,30388284E-005	0,00285697007	0,00148985616	0,00322210323	27,5411949
456457,438	295,552063	146,598068	329,91214	-26,3820724	63,6610	4,19977903	0,0538034998	0,00237843674	0,000469625287	1	11	0,0101532806	3,07757109E-005	0,00271542231	0,00134688849	0,00303110993	26,3820724
308398,406	322,865082	160,861267	360,719025	-26,4838905	63,9750	4,19981956	0,0536638945	0,00320816366	0,000638001016	1	11	0,0109957634	3,04829027E-005	0,00248132134	0,00123627018	0,0027722409	26,4838905
208361,797	356,208374	183,183365	400,550323	-27,214901	64,2890	4,19984818	0,053588409	0,00416980777	0,000872115314	1	11	0,0109108947	2,7239761E-005	0,0022201892	0,00114175223	0,00249656523	27,214901
140771,469	393,781464	212,956253	447,676453	-28,404438	64,6040	4,19984579	0,0535132959	0,00530902902	0,00120134396	1	11	0,0106906034	2,38802004E-005	0,00196483801	0,00106258062	0,00223375601	28,404438
95104,9688	439,849792	249,783142	505,825531	-29,5914974	64,9180	4,19986248	0,053414695	0,00669967663	0,0016337235	1	11	0,0105742253	2,09048867E-005	0,00171910692	0,000976251264	0,00197696616	29,5914974
64257,8047	493,30304	296,526978	575,565918	-31,0102921	65,4660	4,19981766	0,0515583158	0,00835276116	0,00221701339	1	12	0,00953099877	1,65593519E-005	0,00148909923	0,000895105186	0,00173742045	31,0102921
43408,1992	558,15094	350,071381	658,849304	-32,095871	65,7800	4,19983244	0,0514562875	0,0104734981	0,00295687397	1	12	0,0105014127	1,59390202E-005	0,00128581794	0,000806462951	0,00151779782	32,095871
29333,4883	634,107422	417,561829	759,243103	-33,365036	66,0940	4,1998353	0,0513915047	0,0129937828	0,00393020734	1	12	0,010458827	1,37753332E-005	0,0011000213	0,000724367681	0,00131710118	33,365036
19812,0098	723,40918	500,671814	879,768799	-34,6871262	66,4080	4,19982767	0,0513089895	0,0160449538	0,00519646052	1	12	0,0103462348	1,17601749E-005	0,000934645534	0,000646868604	0,00113666232	34,6871262
13391,1094	832,921021	603,276733	1028,44556	-35,9154549	66,7220	4,19982481	0,0512266345	0,0197009426	0,00677887397	1	12	0,0100138057	9,73683655E-006	0,000787483063	0,00057036645	0,000972341222	35,9154549
9040,93652	968,124573	732,132568	1213,78882	-37,0979576	66,9972	4,19989586	0,0511958599	0,0240445677	0,00874802843	1	12	0,01004354	8,27453641E-006	0,000657120429	0,000496939465	0,000823866518	37,0979576
6110,23389	1136,75513	885,776184	1441,11475	-37,926239	67,3825	4,19987297	0,0510427728	0,0294061601	0,0111093642	1	12	0,00916905235	6,36247205E-006	0,000547355914	0,000426507671	0,000693907263	37,926239
4131,0332	1356,3147	1073,14783	1729,51892	-38,3518677	67,8353	4,19988966	0,0509576797	0,0359006152	0,0138219837	1	12	0,00932162721	5,38972245E-006	0,000453429529	0,000358764024	0,000578195439	38,3518677
2787,32349	1631,76685	1261,81409	2062,72583	-37,7140961	68,2863	4,19988632	0,0508400798	0,0452519618	0,0169334374	1	12	0,0095042875	4,60763476E-006	0,000383508566	0,000296559854	0,000484795397	37,7140961
1883,19141	1961,4281	1467,14404	2449,43091	-36,7964096	68,7373	4,19989252	0,0507321283	0,0576040372	0,0206665527	1	12	0,00957044028	3,9072097E-006	0,000326920388	0,000244535739	0,000408258085	36,7964096
1273,77686	2351,51782	1675,50073	2887,37573	-35,4705887	69,1883	4,19989157	0,0505975708	0,0745730922	0,0251110457	1	12	0,00959635619	3,32355648E-006	0,000282060122	0,000200973154	0,000346335262	35,4705887
859,17511	2789,75293	1874,08752	3360,79248	-33,8922348	69,6393	4,19988966	0,0504773706	0,0988436118	0,030735828	1	12	0,00960471388	2,85787178E-006	0,000246991694	0,000165922946	0,000297548861	33,8922348
580,929382	3284,18433	2068,04858	3881,06836	-32,1985893	70,0898	4,19988728	0,0503650606	0,132475644	0,0376144685	1	12	0,00960494019	2,47481853E-006	0,000218034373	0,000137296069	0,000257661013	32,1985893
392,612793	3822,677	2255,87817	4438,67627	-30,5461502	70,5443	4,19988775	0,0502388701	0,179696679	0,0464156456	1	12	0,00960620586	2,16420517E-006	0,000194026332	0,00011450085	0,000225292388	30,5461502
265,424622	4424,92285	2469,57349	5067,41895	-29,1661243	70,9948	4,19988728	0,0501262061	0,242804646	0,0576669872	1	12	0,00960873719	1,89617981E-006	0,000172318571	9,6171927E-005	0,000197339119	29,1661243
179,368607	5054,97168	2690,14868	5726,22363	-28,0209599	71,4479	4,1998868	0,0500221364	0,329835504	0,0727969781	1	12	0,00960395392	1,67718804E-006	0,000154163688	8,2042643E-005	0,000174635163	28,0209599
121,124016	5751,19287	2958,16577	6467,37695	-27,2193375	71,8953	4,19988585	0,0499026552	0,444188595	0,0929300189	1	12	0,00960378069	1,48495758E-006	0,00013749965	7,07238942E-005	0,00015462219	27,2193375
81,8062515	6507,54199	3132,77588	7222,35352	-25,7064857	72,3367	4,19988585	0,0498056412	0,621018171	0,116843745	1	12	0,00960430969	1,32980335E-006	0,000124755446	6,0058137E-005	0,000138459029	25,7064857
55,2297401	7439,81396	3308,08008	8142,12646	-23,9721088	72,7863	4,19989109	0,049693048	0,871106267	0,14379622	1	12	0,00960201398	1,17930051E-006	0,000112224159	4,98999725E-005	0,000122818034	23,9721088
37,3548431	8397,30469	3387,87939	9054,96875	-21,9715328	73,2105	4,19988537	0,0495986566	1,25760794	0,176046446	1	12	0,0096052764	1,06077414E-006	0,000102415579	4,13193993E-005	0,000110436602	21,9715328
25,2341652	9386,18555	3562,31055	10039,4492	-20,7831039	73,6583	4,19989252	0,0494897924	1,77051425	0,222917005	1	12	0,00960365962	9,56592316E-007	9,31256654E-005	3,5343699E-005	9,96070594E-005	20,7831039
17,0330601	10532,2949	3371,50293	11058,7646	-17,7504368	74,0592	4,19988108	0,0493987761	2,77143002	0,257595211	1	12	0,00960182399	8,68254688E-007	8,61211447E-005	2,75683196E-005	9,0426016E-005	17,7504368
11,5228605	11299,998	2962,80615	11681,959	-14,6919689	74,4547	4,19987869	0,0493018366	4,66183138	0,29986909	1	12	0,00960283168	8,220224E-007	8,28031771E-005	2,17106008E-005	8,56020779E-005	14,6919689
7,77362823	12003,5781	2565,25879	12274,626	-12,063097	75,3295	4,19989157	0,0490113944	7,98114443	0,348586857	1	13	0,00960321166	7,82362861E-007	7,96698805E-005	1,70260791E-005	8,14688756E-005	12,063097
5,25033522	12797,4375	1868,53735	12933,1299	-8,30698395	75,7616	4,19988537	0,0489093363	16,2230053	0,33863169	1	13	0,00960179511	7,42418536E-007	7,65095683E-005	1,11710633E-005	7,73208012E-005	8,30698395
3,54791069	13580,3408	1626,97656	13677,4521	-6,83169174	76,3850	4,19989586	0,0487762466	27,5718651	0,39013806	1	13	0,0096076075	7,02441298E-007	7,25939244E-005	8,69702853E-006	7,31130349E-005	6,83169174
2,39647198	13607,0908	1835,60217	13730,3447	-7,68284369	77,2905	4,19989729	0,0485894904	36,1800537	0,646641314	1	13	0,00960622076	6,9963437E-007	7,21775941E-005	9,73678743E-006	7,28313826E-005	7,68284369
1,62219644	13129,874	1565,7677	13222,9053	-6,80053759	78,6139	4,19990253	0,0482980236	62,6598511	0,878598034	1	13	0,00960203912	7,26167116E-007	7,50942709E-005	8,95516405E-006	7,56263471E-005	6,80053759
1,09602952	12683,7383	642,96991	12700,0244	-2,90197992	80,5579	4,19990873	0,0479039438	225,843307	0,578867853	1	13	0,0096015241	7,56024065E-007	7,86390301E-005	3,98640577E-006	7,87400058E-005	2,90197992
0,739819586	12811,5752	-500,312622	12821,3408	2,23635602	83,4247	4,19991064	0,0473536775	-429,984558	-0,654739976	1	13	0,00960287172	7,48975594E-007	7,79355614E-005	-3,04350897E-006	7,79949623E-005	-2,23635602
0,499264985	13559,7637	-2041,52588	13712,5859	8,56200981	87,6609	4,19990969	0,046542272	-156,147186	-3,46102858	1	13	0,00960482098	7,00438363E-007	7,21129763E-005	-1,08571585E-005	7,29257081E-005	-8,56200981