File: Experimentelles/Rohdaten/Batteriemessungen/AlteZelle/Studenten_Batterietests/SemArbeitToph/ECLab-Export/Al_rein_02_03_PEIS_C01.mpt
EC-Lab ASCII FILE
Nb header lines : 65

Potentio Electrochemical Impedance Spectroscopy

Run on channel : 1 (SN 6985)
Grouped channel(s) : 1
User :
CE vs. WE compliance from -10 V to 10 V
Electrode connection : standard
Ewe ctrl range : min = -10,00 V, max = 10,00 V
Acquisition started on : 03.13.2015 16:19:02
Saved on :
	File : Al_rein_02_03_PEIS_C01.mpr
	Directory : C:\Hupfer\Studenten Batterietests\SemArbeitToph\
	Host : 192.168.0.2
Device : VMP3 (SN 0324)
Address : 192.168.0.1
EC-Lab for windows v10.33 (software)
Internet server v10.33 (firmware)
Command interpretor v10.32 (firmware)
Electrode material :
Initial state :
Electrolyte :
Comments :
Mass of active material : 0,001 mg
 at x = 0,000
Molecular weight of active material (at x = 0) : 0,001 g/mol
Atomic weight of intercalated ion : 0,001 g/mol
Acquisition started at : xo = 0,000
Number of e- transfered per intercalated ion : 1
for DX = 1, DQ = 26,801 mA.h
Battery capacity : 0,000 A.h
Electrode surface area : 0,001 cm²
Characteristic mass : 0,001 g
Multi Sine          0
E (V)               0,0000
vs.                 Eoc
tE (h:m:s)          0:00:0,0000
record              0
dI                  0,000
unit dI             mA
dt (s)              0,000
fi                  1,000
unit fi             MHz
ff                  500,000
unit ff             mHz
Sel Nd              1
Nd                  6
Nt                  51
Log                 1
Va (mV)             10,0
pw                  0,10
Na                  2
E range min (V)     -10,000
E range max (V)     10,000
I Range             Auto
Bandwidth           5
corr                0
nc cycles           0
goto Ns'            0
nr cycles           0
inc. cycle          0

freq/Hz	Re(Z)/Ohm	-Im(Z)/Ohm	|Z|/Ohm	Phase(Z)/deg	time/s	<Ewe>/V	<I>/mA	Cs/µF	Cp/µF	cycle number	I Range	|Ewe|/V	|I|/A	Re(Y)/Ohm-1	Im(Y)/Ohm-1	|Y|/Ohm-1	Phase(Y)/deg
1000024,25	14,7725658	-1,60498989	14,859498	6,20067358	21310,4647	4,21020079	0,000968602079	-0,0991601795	-0,00115684094	1	10	0,000448451756	3,0179468E-005	0,0669033155	-0,00726882182	0,0672970265	-6,20067358
675622,438	12,9169483	-0,701364815	12,935976	3,10799551	21311,6967	4,21081161	0,0141966697	-0,335870683	-0,000987328356	1	10	0,00198338763	0,000153323388	0,0771900862	-0,00419126917	0,0773037896	-3,10799551
456457,438	12,9495182	-0,0438554175	12,9495926	0,194039702	21312,9287	4,21099186	0,015335042	-7,95053911	-9,11865645E-005	1	10	0,00627452461	0,00048453451	0,0772220641	-0,000261523674	0,0772225037	-0,194039702
308398,406	13,0536699	0,578575015	13,0664854	-2,53784776	21313,2427	4,21107244	0,0156983547	0,891966045	0,00174884009	1	10	0,010486749	0,000802568451	0,0764566064	0,00338877016	0,076531671	2,53784776
208361,797	13,1854191	1,15551305	13,2359543	-5,00835896	21313,6587	4,2111969	0,0165274348	0,661039174	0,00503809517	1	10	0,0101883449	0,000769747654	0,0752633289	0,0065957522	0,0755517855	5,00835896
140771,469	13,4025736	1,82311738	13,5260019	-7,74625254	21314,0747	4,2112484	0,0181092136	0,620141566	0,0112662977	1	10	0,010168653	0,000751785585	0,0732570291	0,00996496435	0,0739316791	7,74625254
95104,9688	13,6694241	2,65234375	13,9243698	-10,9809227	21314,4907	4,21128988	0,018878676	0,630938649	0,0228926279	1	10	0,0100946641	0,000724963786	0,0705016181	0,013679767	0,0718165338	10,9809227
64257,8047	14,0461626	3,73727727	14,534852	-14,8995523	21314,8047	4,21129847	0,0181427468	0,662733555	0,0438155569	1	10	0,0105789006	0,000727829931	0,0664869621	0,0176902562	0,0688001513	14,8995523
43408,1992	14,5771465	5,18198538	15,4708166	-19,5696354	21315,1187	4,21129656	0,0173341557	0,707541943	0,0793812796	1	10	0,0104841292	0,000677671342	0,0609040335	0,0216505881	0,0646378323	19,5696354
29333,4883	15,4355707	7,09558487	16,9883537	-24,6877918	21315,4327	4,21127319	0,0191972628	0,764659703	0,133395761	1	10	0,0102215009	0,000601676933	0,0534835346	0,024585871	0,0588638559	24,6877918
19812,0098	16,7326794	9,59463215	19,2883263	-29,8302536	21315,6447	4,2112999	0,0183029715	0,83726567	0,207171887	1	10	0,0109529262	0,000567852578	0,0449755415	0,0257892832	0,0518448316	29,8302536
13391,1094	18,772707	12,7290831	22,6813602	-34,1397552	21315,9587	4,21128559	0,0184445623	0,933698118	0,294077992	1	10	0,0100721614	0,000444072211	0,0364912488	0,0247433763	0,0440890677	34,1397552
9040,93652	21,9953098	16,5729637	27,5400944	-36,9971886	21316,2339	4,21135902	0,0217664819	1,06220055	0,384659141	1	10	0,00999373198	0,000362879364	0,029000083	0,0218508989	0,0363106951	36,9971886
6110,23389	26,6823025	20,6870251	33,7623787	-37,7867393	21316,6192	4,21132803	0,0177682526	1,25911176	0,472709447	1	10	0,00914589129	0,000270890014	0,0234076176	0,0181481335	0,0296187662	37,7867393
4131,0332	33,2174683	24,6638584	41,3727684	-36,5937614	21317,3170	4,21132421	0,0050115278	1,56206989	0,555128217	1	11	0,0100798532	0,00024363496	0,0194060598	0,014408933	0,0241704881	36,5937614
2787,32349	41,2916908	27,635807	49,6864319	-33,7937012	21317,7680	4,21132898	0,00382739631	2,06614399	0,639189005	1	11	0,00998451933	0,000200950628	0,0167258047	0,0111942878	0,020126218	33,7937012
1883,19141	50,2872124	29,0181446	58,0590782	-29,9870167	21318,2190	4,2113266	0,00296599697	2,91243362	0,727536917	1	11	0,00988201518	0,0001702062	0,0149182295	0,00860853679	0,017223835	29,9870167
1273,77686	59,3433037	28,660717	65,9019318	-25,7789001	21318,6700	4,21132851	0,00187999837	4,35953045	0,824551046	1	11	0,00982148945	0,000149031897	0,0136639243	0,00659919204	0,015174062	25,7789001
859,17511	67,7277298	26,8592987	72,85923	-21,6321678	21319,1210	4,21132469	0,00210021716	6,89673901	0,937268376	1	11	0,00978216808	0,000134261209	0,0127584338	0,00505970931	0,0137250973	21,6321678
580,929382	74,8970108	24,1619492	78,6979141	-17,8798218	21319,5715	4,21132803	0,00292983605	11,3387403	1,0688144	1	11	0,00975682028	0,000123978127	0,0120931109	0,00390126556	0,0127068171	17,8798218
392,612793	80,931221	21,0879688	83,6335144	-14,6046181	21320,0250	4,21132469	0,00392124057	19,22299	1,22216475	1	11	0,00974748377	0,000116549971	0,0115705868	0,00301490817	0,0119569292	14,6046181
265,424622	85,6830826	18,0790005	87,5696335	-11,9145603	21320,4755	4,21132708	0,00440212525	33,1668739	1,41366434	1	11	0,00974377897	0,000111268928	0,0111734681	0,00235758489	0,0114194835	11,9145603
179,368607	89,3125534	15,2939148	90,6125565	-9,71710396	21320,9285	4,21132898	0,00330932438	58,0169678	1,65278208	1	11	0,00973396376	0,000107424006	0,0108776661	0,00186269579	0,0110359984	9,71710396
121,124016	92,2192764	13,0303202	93,1352997	-8,04249001	21321,3760	4,21132755	0,00325023872	100,840454	1,97385991	1	11	0,00973595772	0,000104535633	0,0106314635	0,00150219549	0,0107370671	8,04249001
81,8062515	94,4277496	11,5003405	95,1254807	-6,9438467	21321,8174	4,21132803	0,00266889064	169,16983	2,47258139	1	11	0,00973253511	0,000102312595	0,0104353223	0,00127091631	0,0105124302	6,9438467
55,2297401	96,5342789	10,5170727	97,1054916	-6,2176528	21322,2670	4,21132803	0,00312312157	274,001099	3,21406341	1	11	0,00973411556	0,000100242687	0,0102375019	0,00111534016	0,0102980789	6,2176528
37,3548431	98,4568558	9,96525574	98,9598846	-5,77947807	21322,6912	4,21132088	0,00364529132	427,547882	4,33554125	1	11	0,00973217562	9,83446516E-005	0,010053739	0,00101758353	0,0101051051	5,77947807
25,2341652	100,551971	10,0728607	101,055237	-5,72055817	21323,1390	4,21132612	0,00346356141	626,149963	6,22108841	1	11	0,00973164942	9,63002967E-005	0,00984629709	0,000986359315	0,00989557803	5,72055817
17,0330601	102,533997	10,4236164	103,062469	-5,80475235	21323,5400	4,21132278	0,00353532122	896,414856	9,16948128	1	11	0,00973293465	9,44372368E-005	0,00965309981	0,000981335063	0,00970285293	5,80475235
11,5228605	105,056282	10,8227558	105,612282	-5,88178444	21323,9354	4,21131754	0,00268790196	1276,20947	13,4019756	1	11	0,00973468926	9,21738392E-005	0,00941874739	0,000970306573	0,0094685955	5,88178444
7,77362823	107,456276	11,9274616	108,116211	-6,33380604	21324,8101	4,21134186	0,00151332049	1716,51794	20,8911686	1	12	0,00973398983	9,00326559E-005	0,00919284951	0,00102039054	0,00924930722	6,33380604
5,25033522	110,333138	12,855793	111,079575	-6,64601994	21325,2413	4,21133566	0,00187333103	2357,948	31,5837383	1	12	0,00973273814	8,76195118E-005	0,00894205924	0,00104191061	0,00900255516	6,64601994
3,54791069	112,656799	13,4166145	113,452896	-6,79152775	21325,8627	4,21134138	0,000195515342	3343,52441	46,7583542	1	12	0,00973612163	8,58164203E-005	0,00875238143	0,00104234566	0,00881423056	6,79152775
2,39647198	118,180855	16,5961456	119,340462	-7,9937768	21326,7693	4,21134424	0,00135139993	4001,66284	77,389061	1	12	0,00973447878	8,15689709E-005	0,00829796679	0,00116528408	0,00837938767	7,9937768
1,62219644	120,664482	18,2918758	122,043068	-8,62000084	21328,0926	4,21134901	0,00202067988	5363,62549	120,489357	1	12	0,00973774679	7,97894318E-005	0,0081012724	0,00122809515	0,0081938291	8,62000084
1,09602952	126,383858	19,4432869	127,87072	-8,74599266	21330,0367	4,21135378	0,000278154592	7468,41064	172,673355	1	12	0,00973766018	7,61523843E-005	0,00772946421	0,00118912489	0,00782039855	8,74599266
0,739819586	132,353439	19,0699673	133,720215	-8,19895935	21332,9033	4,21134806	-0,00175644632	11280,915	229,429947	1	12	0,00973569602	7,28064624E-005	0,00740186404	0,00106648763	0,00747830095	8,19895935
0,499264985	137,888992	18,3816338	139,108795	-7,59318781	21337,1391	4,21135664	-0,000239167843	17342,2285	302,805634	1	12	0,00973520521	6,99826705E-005	0,00712558301	0,000949893496	0,00718861818	7,59318781