File: Experimentelles/Rohdaten/Batteriemessungen/AlteZelle/Studenten_Batterietests/SemArbeitToph/ECLab-Export/Al_rein_01_PEIS_only_03_PEIS_C01.mpt
EC-Lab ASCII FILE
Nb header lines : 65

Potentio Electrochemical Impedance Spectroscopy

Run on channel : 1 (SN 6985)
Grouped channel(s) : 1
User :
CE vs. WE compliance from -10 V to 10 V
Electrode connection : standard
Ewe ctrl range : min = -10,00 V, max = 10,00 V
Acquisition started on : 03.12.2015 18:32:00
Saved on :
	File : Al_rein_01_PEIS_only_03_PEIS_C01.mpr
	Directory : C:\Hupfer\Studenten Batterietests\SemArbeitToph\
	Host : 192.168.0.2
Device : VMP3 (SN 0324)
Address : 192.168.0.1
EC-Lab for windows v10.33 (software)
Internet server v10.33 (firmware)
Command interpretor v10.32 (firmware)
Electrode material :
Initial state :
Electrolyte :
Comments :
Mass of active material : 0,001 mg
 at x = 0,000
Molecular weight of active material (at x = 0) : 0,001 g/mol
Atomic weight of intercalated ion : 0,001 g/mol
Acquisition started at : xo = 0,000
Number of e- transfered per intercalated ion : 1
for DX = 1, DQ = 26,801 mA.h
Battery capacity : 0,000 A.h
Electrode surface area : 0,001 cm²
Characteristic mass : 0,001 g
Multi Sine          0
E (V)               0,0000
vs.                 Eoc
tE (h:m:s)          0:00:0,0000
record              0
dI                  0,000
unit dI             mA
dt (s)              0,000
fi                  1,000
unit fi             MHz
ff                  500,000
unit ff             mHz
Sel Nd              1
Nd                  6
Nt                  51
Log                 1
Va (mV)             10,0
pw                  0,10
Na                  2
E range min (V)     -10,000
E range max (V)     10,000
I Range             Auto
Bandwidth           5
corr                0
nc cycles           0
goto Ns'            0
nr cycles           0
inc. cycle          0

freq/Hz	Re(Z)/Ohm	-Im(Z)/Ohm	|Z|/Ohm	Phase(Z)/deg	time/s	<Ewe>/V	<I>/mA	Cs/µF	Cp/µF	cycle number	I Range	|Ewe|/V	|I|/A	Re(Y)/Ohm-1	Im(Y)/Ohm-1	|Y|/Ohm-1	Phase(Y)/deg
1000024,25	19,6604996	-3,65637612	19,9976082	10,535265	614,5876	0,0158824213	0,0146363601	-0,0435269997	-0,00145513867	1	10	0,00065331778	3,26697955E-005	0,0491630062	-0,00914312713	0,0500059798	-10,535265
675622,438	18,1363697	-1,44613254	18,1939335	4,55892563	615,8196	0,0161174908	0,0111709824	-0,162895083	-0,0010291317	1	10	0,00269585359	0,000148173218	0,0547894798	-0,0043687271	0,0549633764	-4,55892563
456457,438	18,0498848	-0,314132392	18,052618	0,997050285	617,0516	0,0162966363	0,013773757	-1,10995948	-0,000336087338	1	10	0,00851620734	0,00047174361	0,0553852431	-0,000963900762	0,0553936288	-0,997050285
308398,406	18,1911182	0,481766582	18,1974964	-1,51704478	617,4676	0,0163829923	0,0149885025	1,0712018	0,000750795007	1	10	0,0101268683	0,000556497893	0,0549333543	0,00145483378	0,054952614	1,51704478
208361,797	18,3892612	1,08645284	18,4213276	-3,38115191	617,8836	0,0164842103	0,0157318842	0,703058064	0,0024455192	1	10	0,0101547493	0,000551249599	0,0541904084	0,00320161437	0,0542849042	3,38115191
140771,469	18,679533	1,74546123	18,7609062	-5,33835649	618,2996	0,0165296346	0,0168124847	0,6477319	0,00560670951	1	10	0,010148515	0,000540939509	0,0530711375	0,00495909667	0,053302329	5,33835649
95104,9688	19,0173759	2,47651672	19,177948	-7,41952705	618,6136	0,0165300444	0,016758455	0,675733864	0,0112681836	1	10	0,0108010843	0,000563203357	0,0517066382	0,00673344033	0,0521432236	7,41952705
64257,8047	19,4354877	3,38796687	19,7285709	-9,88835907	618,9276	0,0165445153	0,0166671649	0,731063485	0,0215596724	1	10	0,0105539402	0,000534957158	0,0499349013	0,0087045813	0,0506879091	9,88835907
43408,1992	19,9724636	4,56422758	20,4873486	-12,872529	619,2416	0,0165436212	0,0164473169	0,803306162	0,0398698077	1	10	0,0103358338	0,00050449837	0,0475839116	0,0108741615	0,0488106124	12,872529
29333,4883	20,8282299	6,10876703	21,7055798	-16,3460255	619,5556	0,0165378768	0,0160430204	0,888183773	0,070350498	1	10	0,0102637839	0,000472863845	0,044208888	0,012966142	0,0460711047	16,3460255
19812,0098	22,1040707	8,07851791	23,5340691	-20,07617	619,8696	0,016548207	0,016434269	0,994397283	0,117173456	1	10	0,0100514097	0,000427100371	0,0399096757	0,0145860491	0,0424915887	20,07617
13391,1094	24,0789204	10,4310188	26,2411995	-23,4223213	620,0816	0,0165374856	0,0156051861	1,13940167	0,180037484	1	10	0,0103129353	0,000393005495	0,0349679068	0,0151481414	0,0381080136	23,4223213
9040,93652	27,0282803	13,0610819	30,0186577	-25,7915802	620,3568	0,0165842902	0,0170602705	1,34780657	0,25515455	1	10	0,0103530232	0,00034488627	0,0299941022	0,0144942785	0,033312615	25,7915802
6110,23389	31,1205654	15,5855751	34,8051682	-26,602293	620,7421	0,0165676754	0,0157775227	1,67124248	0,335117936	1	10	0,00953943375	0,000274080958	0,0256897565	0,0128657576	0,0287313648	26,602293
4131,0332	36,3884506	17,4196396	40,3430672	-25,5810642	621,4399	0,0165634044	0,00253012683	2,21167994	0,412346959	1	11	0,0102480436	0,000254022423	0,0223576277	0,0107028959	0,0247874055	25,5810642
2787,32349	41,8805847	18,1087914	45,6279716	-23,3832245	621,8909	0,0165728405	0,00247756485	3,15314031	0,496660829	1	11	0,0103261955	0,000226312826	0,0201164074	0,00869815424	0,0219163802	23,3832245
1883,19141	47,1554832	17,9414005	50,4532814	-20,8304806	622,3419	0,0165716093	0,00245119096	4,71052504	0,595666528	1	11	0,0103156306	0,000204459066	0,0185247939	0,00704818824	0,0198203158	20,8304806
1273,77686	51,8134956	17,3881741	54,6533356	-18,5513191	622,7929	0,0165701453	0,00244886056	7,18576193	0,727356672	1	11	0,0102888448	0,000188256483	0,0173464082	0,00582130859	0,0182971451	18,5513191
859,17511	56,1756172	16,9190083	58,6681595	-16,7612839	623,2439	0,0165664162	0,00249788049	10,9487247	0,910559654	1	11	0,0102742575	0,000175124937	0,0163208563	0,00491552567	0,0170450211	16,7612839
580,929382	60,4321671	16,5806999	62,6655121	-15,3426218	623,6944	0,0165622402	0,00236461172	16,5231915	1,15675783	1	11	0,0102541	0,00016363227	0,0153890206	0,00422226684	0,0159577411	15,3426218
392,612793	64,8625717	16,1093388	66,833107	-13,9478302	624,1479	0,0165654011	0,00225930079	25,1639004	1,46200919	1	11	0,0102434456	0,000153269037	0,0145214796	0,00360657042	0,0149626443	13,9478302
265,424622	69,2831726	15,3181067	70,9563446	-12,4672022	624,5984	0,0165600199	0,00221260986	39,1447792	1,82432222	1	11	0,0102347154	0,000144239617	0,0137608517	0,00304244435	0,0140931727	12,4672022
179,368607	73,4318924	13,9675846	74,7484894	-10,7696581	625,0514	0,0165643934	0,00229518046	63,5261269	2,21814609	1	11	0,0102310795	0,000136873394	0,0131425578	0,00249986444	0,0133781964	10,7696581
121,124016	76,979866	12,2413816	77,9471054	-9,03555107	625,4989	0,0165561698	0,00227523665	107,33947	2,64740467	1	11	0,0102287419	0,000131226712	0,0126700159	0,00201479299	0,0128292125	9,03555107
81,8062515	79,8033066	10,2974567	80,4649353	-7,35255957	625,9403	0,0165589303	0,00245230645	188,931183	3,09421349	1	11	0,0102223633	0,000127041218	0,0123255858	0,00159043749	0,0124277733	7,35255957
55,2297401	82,0511627	8,50670719	82,4909515	-5,91903019	626,3899	0,0165606737	0,00238101254	338,754944	3,60243368	1	11	0,0102241253	0,000123942387	0,0120579116	0,00125011173	0,0121225417	5,91903019
37,3548431	83,7334824	6,91532421	84,0185547	-4,72119045	626,8141	0,0165580716	0,00227747299	616,113403	4,17383575	1	11	0,0102227926	0,000121673031	0,011861749	0,000979630044	0,011902133	4,72119045
25,2341652	85,0165863	5,56530046	85,1985474	-3,74531555	627,2619	0,0165650174	0,00236805831	1133,29395	4,83565617	1	11	0,0102266306	0,000120032921	0,0117122214	0,000766697864	0,0117372889	3,74531555
17,0330601	86,0329285	4,49820518	86,150444	-2,99296665	627,6628	0,01656265	0,00228371727	2077,24731	5,66306686	1	11	0,0102263661	0,000118703581	0,0115917679	0,000606071961	0,0116076013	2,99296665
11,5228605	86,7237244	3,54947066	86,7963333	-2,34372139	628,0583	0,0165593401	0,0024123257	3891,31348	6,50759697	1	11	0,0102241635	0,00011779488	0,0115115866	0,000471151783	0,0115212239	2,34372139
7,77362823	87,335022	2,84379005	87,3813095	-1,86499763	628,6311	0,0165664032	0,00231239386	7199,44141	7,62529755	1	11	0,0102294255	0,000117066513	0,0114380326	0,000372443494	0,0114440946	1,86499763
5,25033522	87,7452774	2,26170778	87,7744217	-1,47651958	629,0632	0,0165572893	0,00235146959	13402,832	8,89884472	1	11	0,010227087	0,00011651557	0,0113890581	0,00029356248	0,0113928411	1,47651958
3,54791069	88,0996475	1,94291949	88,1210709	-1,26337671	630,0127	0,0165755078	0,00116068334	23088,3359	11,2238722	1	12	0,0102259265	0,000116044052	0,0113452654	0,000250204612	0,011348024	1,26337671
2,39647198	88,3541946	1,62159514	88,369072	-1,05145133	630,9182	0,0165765081	0,00111584354	40954,8477	13,7908049	1	12	0,0102270404	0,000115730996	0,011314271	0,000207654753	0,0113161765	1,05145133
1,62219644	88,6191635	1,48397946	88,6315842	-0,959361553	632,2414	0,0165760703	0,0011906781	66113,2891	18,5339317	1	12	0,0102302097	0,000115423973	0,0112810787	0,000188908234	0,0112826601	0,959361553
1,09602952	88,7901001	1,42115748	88,8014755	-0,916987062	634,1855	0,0165811516	0,00145504496	102177,594	26,1697578	1	12	0,0102314483	0,000115217095	0,0112596313	0,000180219533	0,0112610739	0,916987062
0,739819586	89,0343323	1,44943142	89,0461273	-0,932662308	637,0520	0,0165818334	0,00155393058	148421,438	39,3243828	1	12	0,0102303652	0,000114888375	0,0112286462	0,000182796372	0,0112301344	0,932662308
0,499264985	89,2417526	1,57604408	89,2556686	-1,01176059	641,2868	0,0165837929	0,00164838589	202264,969	63,064621	1	12	0,0102280304	0,000114592505	0,0112020234	0,000197832094	0,0112037705	1,01176059