File: Experimentelles/Rohdaten/Batteriemessungen/AlteZelle/Studenten_Batterietests/SemArbeitToph/ECLab-Export/Al_Struktur_01_02_OCV_C03.mpt
EC-Lab ASCII FILE
Nb header lines : 43

Open Circuit Voltage

Run on channel : 3 (SN 6987)
Grouped channel(s) : 3
User :
CE vs. WE compliance from -10 V to 10 V
Electrode connection : standard
Ewe ctrl range : min = -10,00 V, max = 10,00 V
Acquisition started on : 03.11.2015 16:50:59
Saved on :
	File : Al_Struktur_01_02_OCV_C03.mpr
	Directory : C:\Hupfer\Studenten Batterietests\SemArbeitToph\
	Host : 192.168.0.2
Device : VMP3 (SN 0324)
Address : 192.168.0.1
EC-Lab for windows v10.33 (software)
Internet server v10.33 (firmware)
Command interpretor v10.32 (firmware)
Electrode material :
Initial state :
Electrolyte :
Comments :
Mass of active material : 0,001 mg
 at x = 0,000
Molecular weight of active material (at x = 0) : 0,001 g/mol
Atomic weight of intercalated ion : 0,001 g/mol
Acquisition started at : xo = 0,000
Number of e- transfered per intercalated ion : 1
for DX = 1, DQ = 26,801 mA.h
Battery capacity : 0,000 A.h
Electrode surface area : 0,001 cm²
Characteristic mass : 0,001 g
tR (h:m:s)          0:10:0,0000
dER/dt (mV/h)       1,0
dER (mV)            1,00
dtR (s)             0,5000
E range min (V)     -10,000
E range max (V)     10,000

mode	error	time/s	Ewe/V
3	0	21749,9215	4,20330667
3	0	21752,4215	4,20323038
3	0	21754,9215	4,20332575
3	0	21757,4215	4,20336342
3	0	21759,9215	4,20330667
3	0	21762,4215	4,20324945
3	0	21764,9215	4,20324945
3	0	21767,4215	4,20332575
3	0	21769,9215	4,20319223
3	0	21772,4215	4,2032876
3	0	21774,9215	4,20321131
3	0	21777,4215	4,20332575
3	0	21779,9215	4,20323038
3	0	21782,4215	4,20326853
3	0	21784,9215	4,2032876
3	0	21787,4215	4,20340157
3	0	21789,9215	4,20323038
3	0	21792,4215	4,20326853
3	0	21794,9215	4,20332575
3	0	21797,4215	4,20332575
3	0	21799,9215	4,20330667
3	0	21802,4215	4,20323038
3	0	21804,9215	4,20324945
3	0	21807,4215	4,20330667
3	0	21809,9215	4,20330667
3	0	21812,4215	4,20340157
3	0	21814,9215	4,20332575
3	0	21817,4215	4,20326853
3	0	21819,9215	4,20338249
3	0	21822,4215	4,20338249
3	0	21824,9215	4,20342064
3	0	21827,4215	4,20336342
3	0	21829,9215	4,20343971
3	0	21832,4215	4,20330667
3	0	21834,9215	4,20338249
3	0	21837,4215	4,20338249
3	0	21839,9215	4,20347786
3	0	21842,4215	4,20334435
3	0	21844,9215	4,20338249
3	0	21847,4215	4,20336342
3	0	21849,9215	4,20338249
3	0	21852,4215	4,20345879
3	0	21854,9215	4,20343971
3	0	21857,4215	4,20343971
3	0	21859,9215	4,20336342
3	0	21862,4215	4,2032876
3	0	21864,9215	4,20347786
3	0	21867,4215	4,20338249
3	0	21869,9215	4,20347786
3	0	21872,4215	4,20347786
3	0	21874,9215	4,20342064
3	0	21877,4215	4,20347786
3	0	21879,9215	4,20355415
3	0	21882,4215	4,20347786
3	0	21884,9215	4,20336342
3	0	21887,4215	4,20345879
3	0	21889,9215	4,20355415
3	0	21892,4215	4,20355415
3	0	21894,9215	4,2035923
3	0	21897,4215	4,20347786
3	0	21899,9215	4,20357323
3	0	21902,4215	4,20345879
3	0	21904,9215	4,20355415
3	0	21907,4215	4,20343971
3	0	21909,9215	4,20349693
3	0	21912,4215	4,20340157
3	0	21914,9215	4,20357323
3	0	21917,4215	4,20363045
3	0	21919,9215	4,20355415
3	0	21922,4215	4,20364952
3	0	21924,9215	4,20349693
3	0	21927,4215	4,2035923
3	0	21929,9215	4,20347786
3	0	21932,4215	4,20355415
3	0	21934,9215	4,20366859
3	0	21937,4215	4,20355415
3	0	21939,9215	4,20357323
3	0	21942,4215	4,20357323
3	0	21944,9215	4,20351601
3	0	21947,4215	4,20361137
3	0	21949,9215	4,20361137
3	0	21952,4215	4,20366859
3	0	21954,9215	4,20363045
3	0	21957,4215	4,20345879
3	0	21959,9215	4,20347786
3	0	21962,4215	4,20363045
3	0	21964,9215	4,20361137
3	0	21967,4215	4,20364952
3	0	21969,9215	4,20351601
3	0	21972,4215	4,20349693
3	0	21974,9215	4,20363045
3	0	21977,4215	4,20357323
3	0	21979,9215	4,20361137
3	0	21982,4215	4,20364952
3	0	21984,9215	4,2035923
3	0	21987,4215	4,20355415
3	0	21989,9215	4,2035923
3	0	21992,4215	4,2035923
3	0	21994,9215	4,20361137
3	0	21997,4215	4,20351601
3	0	21999,9215	4,20353508
3	0	22002,4215	4,20351601
3	0	22004,9215	4,20347786
3	0	22007,4215	4,20355415
3	0	22009,9215	4,20366859
3	0	22012,4215	4,20353508
3	0	22014,9215	4,20368767
3	0	22017,4215	4,20355415
3	0	22019,9215	4,20357323
3	0	22022,4215	4,20349693
3	0	22024,9215	4,20361137
3	0	22027,4215	4,20357323
3	0	22029,9215	4,20370674
3	0	22032,4215	4,20355415
3	0	22034,9215	4,2035923
3	0	22037,4215	4,20361137
3	0	22039,9215	4,20347786
3	0	22042,4215	4,20355415
3	0	22044,9215	4,2035923
3	0	22047,4215	4,20351601
3	0	22049,9215	4,20357323
3	0	22052,4215	4,20357323
3	0	22054,9215	4,20364952
3	0	22057,4215	4,20357323
3	0	22059,9215	4,20366859
3	0	22062,4215	4,20357323
3	0	22064,9215	4,20355415
3	0	22067,4215	4,20368767
3	0	22069,9215	4,20372581
3	0	22072,4215	4,20376396
3	0	22074,9215	4,20368767
3	0	22077,4215	4,20366859
3	0	22079,9215	4,20368767
3	0	22082,4215	4,20364952
3	0	22084,9215	4,20380211
3	0	22087,4215	4,20382118
3	0	22089,9215	4,20380211
3	0	22092,4215	4,20366859
3	0	22094,9215	4,20372581
3	0	22097,4215	4,20380211
3	0	22099,9215	4,20368767
3	0	22102,4215	4,20376396
3	0	22104,9215	4,20378304
3	0	22107,4215	4,20378304
3	0	22109,9215	4,20378304
3	0	22112,4215	4,20391655
3	0	22114,9215	4,20374489
3	0	22117,4215	4,20376396
3	0	22119,9215	4,20380211
3	0	22122,4215	4,20389748
3	0	22124,9215	4,20389748
3	0	22127,4215	4,20376396
3	0	22129,9215	4,2038784
3	0	22132,4215	4,20376396
3	0	22134,9215	4,20378304
3	0	22137,4215	4,20374489
3	0	22139,9215	4,20393562
3	0	22142,4215	4,20380211
3	0	22144,9215	4,20385933
3	0	22147,4215	4,20380211
3	0	22149,9215	4,2038784
3	0	22152,4215	4,2038784
3	0	22154,9215	4,20384026
3	0	22157,4215	4,20380211
3	0	22159,9215	4,20376396
3	0	22162,4215	4,20374489
3	0	22164,9215	4,20380211
3	0	22167,4215	4,20376396
3	0	22169,9215	4,20370674
3	0	22172,4215	4,20366859
3	0	22174,9215	4,20368767
3	0	22177,4215	4,20372581
3	0	22179,9215	4,20368767
3	0	22182,4215	4,20370674
3	0	22184,9215	4,20372581
3	0	22187,4215	4,20376396
3	0	22189,9215	4,20363045
3	0	22192,4215	4,20370674
3	0	22194,9215	4,20372581
3	0	22197,4215	4,20374489
3	0	22199,9215	4,20370674
3	0	22202,4215	4,20364952
3	0	22204,9215	4,20374489
3	0	22207,4215	4,20363045
3	0	22209,9215	4,20372581
3	0	22212,4215	4,20374489
3	0	22214,9215	4,20364952
3	0	22217,4215	4,20370674
3	0	22219,9215	4,20374489
3	0	22222,4215	4,20368767
3	0	22224,9215	4,20380211
3	0	22227,4215	4,20372581
3	0	22229,9215	4,20368767
3	0	22232,4215	4,20372581
3	0	22234,9215	4,20368767
3	0	22237,4215	4,20361137
3	0	22239,9215	4,20357323
3	0	22242,4215	4,20376396
3	0	22244,9215	4,20349693
3	0	22247,4215	4,20363045
3	0	22249,9215	4,20355415
3	0	22252,4215	4,20366859
3	0	22254,9215	4,20361137
3	0	22257,4215	4,20366859
3	0	22259,9215	4,20355415
3	0	22262,4215	4,20372581
3	0	22264,9215	4,2035923
3	0	22267,4215	4,20361137
3	0	22269,9215	4,2035923
3	0	22272,4215	4,2035923
3	0	22274,9215	4,20355415
3	0	22277,4215	4,20370674
3	0	22279,9215	4,20357323
3	0	22282,4215	4,2035923
3	0	22284,9215	4,20357323
3	0	22287,4215	4,20366859
3	0	22289,9215	4,20363045
3	0	22292,4215	4,20364952
3	0	22294,9215	4,20357323
3	0	22297,4215	4,20368767
3	0	22299,9215	4,20361137
3	0	22302,4215	4,20357323
3	0	22304,9215	4,20361137
3	0	22307,4215	4,20364952
3	0	22309,9215	4,20364952
3	0	22312,4215	4,20357323
3	0	22314,9215	4,20361137
3	0	22317,4215	4,20393562
3	0	22319,9215	4,2039547
3	0	22322,4215	4,20399284
3	0	22324,9215	4,20403099
3	0	22327,4215	4,20410728
3	0	22329,9215	4,20408821
3	0	22332,4215	4,20403099
3	0	22334,9215	4,20410728
3	0	22337,4215	4,20408821
3	0	22339,9215	4,20401192
3	0	22342,4215	4,20403099
3	0	22344,9215	4,20405006
3	0	22347,4215	4,20414543
3	0	22349,9215	4,20399284