File: Experimentelles/Rohdaten/Batteriemessungen/AlteZelle/Studenten_Batterietests/SemArbeitToph/ECLab-Export/Al_Sand_01_03_PEIS_C02.mpt
EC-Lab ASCII FILE
Nb header lines : 65

Potentio Electrochemical Impedance Spectroscopy

Run on channel : 2 (SN 6986)
Grouped channel(s) : 2
User :
CE vs. WE compliance from -10 V to 10 V
Electrode connection : standard
Ewe ctrl range : min = -10,00 V, max = 10,00 V
Acquisition started on : 03.11.2015 16:05:34
Saved on :
	File : Al_Sand_01_03_PEIS_C02.mpr
	Directory : C:\Hupfer\Studenten Batterietests\SemArbeitToph\
	Host : 192.168.0.2
Device : VMP3 (SN 0324)
Address : 192.168.0.1
EC-Lab for windows v10.33 (software)
Internet server v10.33 (firmware)
Command interpretor v10.32 (firmware)
Electrode material :
Initial state :
Electrolyte :
Comments :
Mass of active material : 0,001 mg
 at x = 0,000
Molecular weight of active material (at x = 0) : 0,001 g/mol
Atomic weight of intercalated ion : 0,001 g/mol
Acquisition started at : xo = 0,000
Number of e- transfered per intercalated ion : 1
for DX = 1, DQ = 26,801 mA.h
Battery capacity : 0,000 A.h
Electrode surface area : 0,001 cm²
Characteristic mass : 0,001 g
Multi Sine          0
E (V)               0,0000
vs.                 Eoc
tE (h:m:s)          0:00:0,0000
record              0
dI                  0,000
unit dI             mA
dt (s)              0,000
fi                  1,000
unit fi             MHz
ff                  500,000
unit ff             mHz
Sel Nd              1
Nd                  6
Nt                  51
Log                 1
Va (mV)             10,0
pw                  0,10
Na                  2
E range min (V)     -10,000
E range max (V)     10,000
I Range             Auto
Bandwidth           5
corr                0
nc cycles           0
goto Ns'            0
nr cycles           0
inc. cycle          0

freq/Hz	Re(Z)/Ohm	-Im(Z)/Ohm	|Z|/Ohm	Phase(Z)/deg	time/s	<Ewe>/V	<I>/mA	Cs/µF	Cp/µF	cycle number	I Range	|Ewe|/V	|I|/A	Re(Y)/Ohm-1	Im(Y)/Ohm-1	|Y|/Ohm-1	Phase(Y)/deg
1000024,25	18,0949154	-4,38185596	18,6179123	13,612668	93387,0918	4,15081263	0,0119677437	-0,036320474	-0,00201189704	1	10	0,000760329538	4,0838604E-005	0,052202899	-0,012641429	0,0537117161	-13,612668
675622,438	16,1540031	-1,76610005	16,2502594	6,23930645	93388,3238	4,15115166	0,00364735676	-0,13338308	-0,0015754723	1	10	0,0027784945	0,000170981541	0,0611729696	-0,00668797595	0,0615374781	-6,23930645
456457,438	16,0301991	-0,623196006	16,0423088	2,226331	93389,5558	4,15135145	0,00431821402	-0,559493661	-0,000844327151	1	10	0,00816055946	0,000508689845	0,0622881129	-0,00242153602	0,0623351671	-2,226331
308398,406	16,0714111	0,299881727	16,0742092	-1,06897664	93389,8698	4,15123463	0,00448220363	1,72090936	0,000598961313	1	10	0,0108496174	0,000674970506	0,0622006319	0,00116062188	0,0622114576	1,06897664
208361,797	16,2347832	1,11725807	16,2731819	-3,93681908	93390,2858	4,15116739	0,00352624222	0,683673203	0,00322263106	1	10	0,0101590324	0,000624280656	0,0613057949	0,00421899091	0,0614507981	3,93681908
140771,469	16,5193443	1,99780488	16,6397095	-6,89570856	93390,7018	4,15118313	0,0036156897	0,565916598	0,00815768726	1	10	0,0101377694	0,000609251554	0,0596624799	0,00721541932	0,0600972027	6,89570856
95104,9688	16,8826694	3,01767659	17,1502457	-10,1342554	93391,0158	4,15118504	0,00463500619	0,554554522	0,0171691552	1	10	0,0108906571	0,000635014614	0,0573984869	0,0102596376	0,0583082028	10,1342554
64257,8047	17,4238625	4,24808645	17,934248	-13,7018824	93391,3298	4,15118885	0,00463687023	0,583043456	0,0327130668	1	10	0,0105677871	0,000589251751	0,0541724041	0,0132076936	0,0557592362	13,7018824
43408,1992	18,1881561	5,80574846	19,0922947	-17,7033386	93391,6438	4,1511898	0,0042287684	0,631524444	0,0583969727	1	10	0,0103833051	0,000543847913	0,0498967655	0,0159272924	0,0523771495	17,7033386
29333,4883	19,3543987	7,78538513	20,8615665	-21,9126568	93391,9578	4,15118837	0,00478221662	0,696909368	0,0970605314	1	10	0,0102079529	0,000489318627	0,0444719158	0,0178890079	0,0479350388	21,9126568
19812,0098	21,1756878	10,2630196	23,5316658	-25,8576355	93392,1698	4,15116739	0,0053729373	0,78273803	0,148888588	1	10	0,0108255381	0,000460041279	0,038241256	0,018534027	0,0424959287	25,8576355
13391,1094	24,0334263	13,0436392	27,3448734	-28,4899712	93392,3818	4,1511879	0,0051921783	0,911181331	0,207324445	1	10	0,0109764989	0,00040140975	0,0321413316	0,017444035	0,0365699269	28,4899712
9040,93652	28,0758228	15,8761406	32,2537384	-29,4870186	93392,6571	4,1512289	0,00538225146	1,10882187	0,268652886	1	10	0,0109470431	0,000339403836	0,026988104	0,0152610643	0,0310041588	29,4870186
6110,23389	33,3497124	18,0455074	37,918911	-28,4177914	93393,0424	4,15121222	0,00396880694	1,4434216	0,326903611	1	10	0,0100553213	0,00026517958	0,0231942534	0,0125503959	0,0263720658	28,4177914
4131,0332	39,2122688	19,1034031	43,6181374	-25,9743824	93393,7402	4,15120745	0,000304807996	2,01674366	0,386845857	1	11	0,0107651306	0,000246804004	0,0206104629	0,0100409891	0,022926243	25,9743824
2787,32349	45,1224022	18,9700184	48,9478569	-22,8024902	93394,1911	4,15120268	0,000684064522	3,00998974	0,452098608	1	11	0,0108451331	0,000221565017	0,0188332312	0,00791772455	0,0204299036	22,8024902
1883,19141	50,4074821	17,9821434	53,5188904	-19,6331272	93394,6422	4,15120649	0,000447483384	4,69985247	0,530582488	1	11	0,0108385319	0,000202517869	0,0175987072	0,00627808552	0,0186849907	19,6331272
1273,77686	54,9516869	16,7753067	57,4551888	-16,9760551	93395,0932	4,1512084	0,000166701517	7,4482851	0,63494885	1	11	0,0108259525	0,000188424281	0,0166464839	0,00508173509	0,0174048692	16,9760551
859,17511	58,8465385	15,5643587	60,87006	-14,8149548	93395,5441	4,15120792	0,000440955017	11,9016514	0,778147995	1	11	0,0108037395	0,00017748856	0,0158823021	0,00420072023	0,0164284371	14,8149548
580,929382	62,3314018	14,7058153	64,0426788	-13,2750092	93395,9947	4,15120649	0,000720151525	18,6297779	0,982306302	1	11	0,0107967816	0,000168587299	0,0151973516	0,0035855032	0,0156145869	13,2750092
392,612793	65,5338974	14,1703062	67,0484085	-12,201149	93396,4482	4,1512022	0,000795685046	28,6072731	1,27778554	1	11	0,0107838325	0,000160836513	0,0145777017	0,00315211667	0,0149145974	12,201149
265,424622	68,6660233	13,9875422	70,0762024	-11,5138464	93396,8987	4,1512022	-0,000109606255	42,8684235	1,70796609	1	11	0,0107777258	0,00015380008	0,013983014	0,00284839561	0,0142701799	11,5138464
179,368607	71,9362564	14,0254307	73,2907715	-11,032568	93397,3517	4,15120029	-3,15485522E-007	63,264122	2,31681466	1	11	0,0107743936	0,000147008876	0,0133921169	0,00261106458	0,0136442827	11,032568
121,124016	75,3580399	14,2170839	76,6874161	-10,6838741	93397,7991	4,15119267	0,000500914583	92,4228439	3,1765244	1	11	0,0107740182	0,000140492644	0,0128139025	0,00241747685	0,0130399494	10,6838741
81,8062515	78,9290848	14,4570913	80,2421799	-10,3795586	93398,2405	4,15119886	0,00152640685	134,571381	4,36826658	1	11	0,0107712438	0,000134234186	0,0122583378	0,00224530557	0,0124622732	10,3795586
55,2297401	82,6100311	14,6270475	83,8949814	-10,0408049	93398,6901	4,15119982	0,000382391067	197,010986	5,98869038	1	11	0,0107731866	0,000128412765	0,0117371008	0,00207818742	0,0119196642	10,0408049
37,3548431	86,228775	14,5883541	87,4541092	-9,60248566	93399,1143	4,15120649	0,00094899023	292,056519	8,126791	1	11	0,0107673593	0,000123120102	0,0112743564	0,00190741767	0,0114345681	9,60248566
25,2341652	89,6564941	14,6298742	90,8422852	-9,26767063	93399,5621	4,15121078	0,000676134718	431,112488	11,1813869	1	11	0,0107696764	0,000118553558	0,0108643984	0,00177281932	0,0110080894	9,26767063
17,0330601	92,8776016	14,7548075	94,0422974	-9,02674198	93399,9631	4,1512084	5,23721683E-005	633,277283	15,5888662	1	11	0,0107705612	0,000114528906	0,0105018197	0,00166834972	0,0106335133	9,02674198
11,5228605	95,7548065	15,6893864	97,0316467	-9,3052063	93400,3585	4,15120554	-6,61512313E-005	880,346985	23,0164833	1	11	0,0107639348	0,000110932204	0,0101703005	0,00166639953	0,010305916	9,3052063
7,77362823	98,567894	17,0334129	100,028831	-9,80439186	93400,9313	4,15121794	0,000279505854	1201,9729	34,8535995	1	11	0,0107747149	0,000107716092	0,00985110831	0,00170235941	0,00999711733	9,80439186
5,25033522	101,716927	19,8974609	103,644791	-11,0682077	93401,5984	4,15121412	-0,000135216091	1523,47534	56,1481934	1	12	0,0107726492	0,00010393816	0,0094688721	0,00185226323	0,00964833796	11,0682077
3,54791069	105,0989	23,4314518	107,679207	-12,5683575	93402,2208	4,15122223	0,00138231367	1914,46863	90,6531601	1	12	0,0107734352	0,000100051213	0,00906430464	0,0020208566	0,00928684417	12,5683575
2,39647198	108,588776	28,3174458	112,220322	-14,6159029	93403,1264	4,15123129	0,000672232825	2345,27466	149,334045	1	12	0,0107762907	9,60279795E-005	0,00862267241	0,00224859384	0,00891104154	14,6159029
1,62219644	113,259491	35,0916672	118,571236	-17,2147713	93404,4497	4,15122461	-0,000904931163	2795,84229	244,884888	1	12	0,0107717523	9,08462534E-005	0,00805593468	0,00249600434	0,00843374897	17,2147713
1,09602952	116,325104	46,3873711	125,233055	-21,7408047	93406,3937	4,15122747	0,000265919283	3130,3877	429,496552	1	12	0,0107714385	8,60111468E-005	0,0074171233	0,00295775244	0,00798511226	21,7408047
0,739819586	120,556435	59,6627769	134,512085	-26,3305779	93409,2605	4,1512289	0,000547518663	3605,71045	709,37384	1	12	0,010774754	8,01024944E-005	0,00666296901	0,00329747004	0,0074342764	26,3305779
0,499264985	126,074692	81,9184952	150,351151	-33,014267	93413,4962	4,15123606	0,000295569655	3891,4104	1155,20081	1	12	0,0107718538	7,16446375E-005	0,00557717681	0,00362383574	0,00665109651	33,014267