File: Experimentelles/Rohdaten/Batteriemessungen/AlteZelle/Studenten_Batterietests/SemArbeitToph/ECLab-Export/Al_Sand_01_02_OCV_C02.mpt
EC-Lab ASCII FILE
Nb header lines : 43

Open Circuit Voltage

Run on channel : 2 (SN 6986)
Grouped channel(s) : 2
User :
CE vs. WE compliance from -10 V to 10 V
Electrode connection : standard
Ewe ctrl range : min = -10,00 V, max = 10,00 V
Acquisition started on : 03.11.2015 16:05:34
Saved on :
	File : Al_Sand_01_02_OCV_C02.mpr
	Directory : C:\Hupfer\Studenten Batterietests\SemArbeitToph\
	Host : 192.168.0.2
Device : VMP3 (SN 0324)
Address : 192.168.0.1
EC-Lab for windows v10.33 (software)
Internet server v10.33 (firmware)
Command interpretor v10.32 (firmware)
Electrode material :
Initial state :
Electrolyte :
Comments :
Mass of active material : 0,001 mg
 at x = 0,000
Molecular weight of active material (at x = 0) : 0,001 g/mol
Atomic weight of intercalated ion : 0,001 g/mol
Acquisition started at : xo = 0,000
Number of e- transfered per intercalated ion : 1
for DX = 1, DQ = 26,801 mA.h
Battery capacity : 0,000 A.h
Electrode surface area : 0,001 cm²
Characteristic mass : 0,001 g
tR (h:m:s)          0:10:0,0000
dER/dt (mV/h)       1,0
dER (mV)            1,00
dtR (s)             0,5000
E range min (V)     -10,000
E range max (V)     10,000

mode	error	time/s	Ewe/V
3	0	92781,9028	4,19891548
3	0	92783,9978	4,19431877
3	0	92786,4978	4,19063759
3	0	92788,9978	4,18749046
3	0	92791,4978	4,18510628
3	0	92793,9978	4,18297005
3	0	92796,4978	4,18140602
3	0	92798,9978	4,18003273
3	0	92801,4978	4,17856407
3	0	92803,9978	4,1775341
3	0	92806,4978	4,17673302
3	0	92808,9978	4,17629433
3	0	92811,4978	4,17534065
3	0	92813,9978	4,17457771
3	0	92816,4978	4,17461586
3	0	92818,9978	4,17400551
3	0	92821,4978	4,17310905
3	0	92823,9978	4,17272758
3	0	92826,4978	4,17255592
3	0	92828,9978	4,17236519
3	0	92831,4978	4,17139244
3	0	92833,9978	4,17082024
3	0	92836,4978	4,17041969
3	0	92838,9978	4,17001915
3	0	92841,4978	4,16994286
3	0	92843,9978	4,16942787
3	0	92846,4978	4,16937065
3	0	92848,9977	4,16908455
3	0	92851,4977	4,16908455
3	0	92853,9977	4,16870308
3	0	92856,4977	4,16851234
3	0	92858,9977	4,1683979
3	0	92861,4977	4,16837883
3	0	92863,9977	4,16826439
3	0	92866,4977	4,16803551
3	0	92868,9977	4,1677494
3	0	92871,4977	4,16761589
3	0	92873,9977	4,16765404
3	0	92876,4977	4,16744423
3	0	92878,9977	4,16719627
3	0	92881,4977	4,16734886
3	0	92883,9977	4,16719627
3	0	92886,4977	4,16677666
3	0	92888,9977	4,16685295
3	0	92891,4977	4,16649055
3	0	92893,9977	4,16622353
3	0	92896,4977	4,16639519
3	0	92898,9977	4,16609001
3	0	92901,4977	4,16549873
3	0	92903,9977	4,16549873
3	0	92906,4977	4,16525078
3	0	92908,9977	4,16496468
3	0	92911,4977	4,16506004
3	0	92913,9977	4,16506004
3	0	92916,4977	4,16464043
3	0	92918,9977	4,16485023
3	0	92921,4977	4,16475487
3	0	92923,9977	4,16422081
3	0	92926,4977	4,16448784
3	0	92928,9977	4,16425896
3	0	92931,4977	4,16433525
3	0	92933,9977	4,16406822
3	0	92936,4977	4,16397285
3	0	92938,9977	4,16393471
3	0	92941,4977	4,16376305
3	0	92943,9977	4,16349602
3	0	92946,4977	4,16324806
3	0	92948,9977	4,16303825
3	0	92951,4977	4,16300011
3	0	92953,9977	4,16286659
3	0	92956,4977	4,16275215
3	0	92958,9977	4,16240883
3	0	92961,4977	4,16261864
3	0	92963,9977	4,16240883
3	0	92966,4977	4,16223717
3	0	92968,9977	4,16233253
3	0	92971,4977	4,1621418
3	0	92973,9977	4,16189384
3	0	92976,4977	4,16231346
3	0	92978,9977	4,16200829
3	0	92981,4977	4,16160774
3	0	92983,9977	4,16153145
3	0	92986,4977	4,16109276
3	0	92988,9977	4,16164589
3	0	92991,4977	4,16126442
3	0	92993,9977	4,16130257
3	0	92996,4977	4,16105461
3	0	92998,9977	4,16124535
3	0	93001,4977	4,16109276
3	0	93003,9977	4,16099739
3	0	93006,4977	4,1609211
3	0	93008,9977	4,16065407
3	0	93011,4977	4,16067314
3	0	93013,9977	4,16052055
3	0	93016,4977	4,16034889
3	0	93018,9977	4,16031075
3	0	93021,4977	4,16036797
3	0	93023,9977	4,16021538
3	0	93026,4977	4,15996742
3	0	93028,9977	4,16012001
3	0	93031,4977	4,16000557
3	0	93033,9977	4,1596055
3	0	93036,4977	4,15979576
3	0	93038,9977	4,15954828
3	0	93041,4977	4,15935755
3	0	93043,9977	4,15930033
3	0	93046,4977	4,15912867
3	0	93048,9977	4,15994835
3	0	93051,4977	4,15924311
3	0	93053,9977	4,15949106
3	0	93056,4977	4,15937662
3	0	93058,9977	4,15889978
3	0	93061,4977	4,15901423
3	0	93063,9977	4,15886164
3	0	93066,4977	4,15889978
3	0	93068,9977	4,15897608
3	0	93071,4977	4,15870905
3	0	93073,9977	4,15849924
3	0	93076,4977	4,15865183
3	0	93078,9977	4,15865183
3	0	93081,4977	4,15857553
3	0	93083,9977	4,15842295
3	0	93086,4977	4,15815592
3	0	93088,9977	4,15804148
3	0	93091,4977	4,15813684
3	0	93093,9977	4,15792704
3	0	93096,4977	4,1578126
3	0	93098,9977	4,15771723
3	0	93101,4977	4,15767908
3	0	93103,9977	4,15764093
3	0	93106,4977	4,15777445
3	0	93108,9977	4,15758371
3	0	93111,4977	4,15735483
3	0	93113,9977	4,15735483
3	0	93116,4977	4,15731668
3	0	93118,9977	4,15737391
3	0	93121,4977	4,15725946
3	0	93123,9977	4,15737391
3	0	93126,4977	4,15735483
3	0	93128,9977	4,15741205
3	0	93131,4977	4,15724039
3	0	93133,9977	4,15754557
3	0	93136,4977	4,15733576
3	0	93138,9977	4,15746927
3	0	93141,4977	4,15725946
3	0	93143,9977	4,15729761
3	0	93146,4977	4,15695429
3	0	93148,9977	4,15691614
3	0	93151,4977	4,15701151
3	0	93153,9977	4,15703058
3	0	93156,4977	4,15687799
3	0	93158,9977	4,15697336
3	0	93161,4977	4,15687799
3	0	93163,9977	4,15672541
3	0	93166,4977	4,15668726
3	0	93168,9977	4,15666819
3	0	93171,4977	4,15655375
3	0	93173,9977	4,15642023
3	0	93176,4977	4,15634394
3	0	93178,9977	4,15647745
3	0	93181,4977	4,15611506
3	0	93183,9977	4,1561532
3	0	93186,4977	4,15607691
3	0	93188,9977	4,15579081
3	0	93191,4977	4,15560007
3	0	93193,9977	4,155581
3	0	93196,4977	4,15544748
3	0	93198,9977	4,15569544
3	0	93201,4977	4,15542841
3	0	93203,9977	4,15527582
3	0	93206,4977	4,15514231
3	0	93208,9977	4,15518045
3	0	93211,4977	4,15508509
3	0	93213,9977	4,15510416
3	0	93216,4977	4,15527582
3	0	93218,9977	4,15498972
3	0	93221,4977	4,15487528
3	0	93223,9977	4,15479898
3	0	93226,4977	4,15489435
3	0	93228,9977	4,15455103
3	0	93231,4977	4,15458918
3	0	93233,9977	4,1546464
3	0	93236,4977	4,15458918
3	0	93238,9977	4,154284
3	0	93241,4977	4,154284
3	0	93243,9977	4,15430307
3	0	93246,4977	4,15422678
3	0	93248,9977	4,15436029
3	0	93251,4977	4,154284
3	0	93253,9977	4,15416956
3	0	93256,4977	4,15430307
3	0	93258,9977	4,15411234
3	0	93261,4977	4,15386438
3	0	93263,9977	4,15382624
3	0	93266,4977	4,15380716
3	0	93268,9977	4,15374994
3	0	93271,4976	4,15359735
3	0	93273,9976	4,15340662
3	0	93276,4976	4,15355921
3	0	93278,9976	4,15367365
3	0	93281,4976	4,15350199
3	0	93283,9976	4,15315866
3	0	93286,4976	4,15317774
3	0	93288,9976	4,15315866
3	0	93291,4976	4,1530633
3	0	93293,9976	4,1533494
3	0	93296,4976	4,15308237
3	0	93298,9976	4,15315866
3	0	93301,4976	4,15313959
3	0	93303,9976	4,15291071
3	0	93306,4976	4,15281534
3	0	93308,9976	4,15254831
3	0	93311,4976	4,1527009
3	0	93313,9976	4,15249109
3	0	93316,4976	4,15243387
3	0	93318,9976	4,15237665
3	0	93321,4976	4,15231943
3	0	93323,9976	4,1523385
3	0	93326,4976	4,15235758
3	0	93328,9976	4,15239573
3	0	93331,4976	4,15222406
3	0	93333,9976	4,15239573
3	0	93336,4976	4,15207148
3	0	93338,9976	4,15201426
3	0	93341,4976	4,15199518
3	0	93343,9976	4,15201426
3	0	93346,4976	4,15178537
3	0	93348,9976	4,15209055
3	0	93351,4976	4,15199518
3	0	93353,9976	4,1517663
3	0	93356,4976	4,15182352
3	0	93358,9976	4,15199518
3	0	93361,4976	4,15184259
3	0	93363,9976	4,15178537
3	0	93366,4976	4,15155649
3	0	93368,9976	4,15151834
3	0	93371,4976	4,15128946
3	0	93373,9976	4,15144205
3	0	93376,4976	4,15172815
3	0	93378,9976	4,15144205
3	0	93381,4976	4,15165186
3	0	93381,9026	4,15157557