File: Experimentelles/Rohdaten/Batteriemessungen/AlteZelle/Studenten_Batterietests/SemArbeitToph/ECLab-Export/Al_Struktur_01_Zyklieren_02_GCPL_C03.mpt
EC-Lab ASCII FILE
Nb header lines : 76

Galvanostatic Cycling with Potential Limitation

Run on channel : 3 (SN 6987)
Grouped channel(s) : 3
User :
CE vs. WE compliance from -10 V to 10 V
Electrode connection : standard
Ewe ctrl range : min = 0,00 V, max = 5,00 V
Acquisition started on : 03.16.2015 02:19:29
Saved on :
	File : Al_Struktur_01_Zyklieren_02_GCPL_C03.mpr
	Directory : C:\Hupfer\Studenten Batterietests\SemArbeitToph\
	Host : 192.168.0.2
Device : VMP3 (SN 0324)
Address : 192.168.0.1
EC-Lab for windows v10.33 (software)
Internet server v10.33 (firmware)
Command interpretor v10.32 (firmware)
Electrode material :
Initial state :
Electrolyte :
Comments :
Mass of active material : 0,001 mg
 at x = 0,000
Molecular weight of active material (at x = 0) : 0,001 g/mol
Atomic weight of intercalated ion : 0,001 g/mol
Acquisition started at : xo = 0,000
Number of e- transfered per intercalated ion : 1
for DX = 1, DQ = 26,801 mA.h
Battery capacity : 0,000 A.h
Electrode surface area : 0,001 cm²
Characteristic mass : 0,001 g
Ns                  0                   1                   2
Set I/C             I                   I                   I
Is                  0,000               100,000             -100,000
unit Is             mA                  µA                  µA
vs.                 <None>              <None>              <None>
N                   1                   1                   1
I sign              > 0                 > 0                 > 0
t1 (h:m:s)          0:00:0,0000         4:00:0,0000         4:00:0,0000
I Range             1 A                 1 A                 1 A
Bandwidth           5                   5                   5
dE1 (mV)            0,00                10,00               10,00
dt1 (s)             0,0000              10,0000             10,0000
EM (V)              0,000               4,500               2,500
tM (h:m:s)          0:00:0,0000         0:00:0,0000         0:00:0,0000
Im                  0,000               0,000               0,000
unit Im             mA                  mA                  mA
E range min (V)     0,000               0,000               0,000
E range max (V)     5,000               5,000               5,000
dq                  0,000               1,000               1,000
unit dq             mA.h                mA.h                mA.h
dtq (s)             0,0000              120,0000            120,0000
dQM                 0,000               0,000               0,000
unit dQM            mA.h                mA.h                mA.h
dxM                 0,000               0,000               0,000
tR (h:m:s)          0:00:10,0000        0:05:0,0000         0:05:0,0000
dER/dt (mV/h)       0,0                 0,1                 0,1
dER (mV)            0,00                5,00                5,00
dtR (s)             1,0000              120,0000            120,0000
EL (V)              pass                4,200               3,500
goto Ns'            0                   0                   0
nc cycles           0                   0                   0

Number of loops : 6
Loop 0 from point number 0 to 1735
Loop 1 from point number 1736 to 2846
Loop 2 from point number 2847 to 3466
Loop 3 from point number 3467 to 4003
Loop 4 from point number 4004 to 4521
Loop 5 from point number 4522 to 5036

mode	ox/red	error	control changes	Ns changes	counter inc.	Ns	time/s	control/V/mA	Ewe/V	dq/mA.h	<I>/mA	P/W	(Q-Qo)/mA.h	x	Capacity/mA.h
3	1	0	0	0	0	0	600,0006	0	4,06096649	0	0	0	0	0	0
1	1	0	0	0	0	1	1142,9064	0,100000001	4,38762188	0,00061812558659911155	0,22252521679714	0,000976356503	0,033185538501119866	-0,0012381970599078362	0,033185538501119866
1	1	0	0	0	0	1	1882,9064	0,100000001	4,48568487	0,00062512874335878426	0,22504635329431142	0,00100948696	0,079228872565680115	-0,0029561357597776294	0,079228872565680115
1	0	0	1	0	0	2	2424,6639	-0,100000001	4,1248107	1,785881577713816E-005	0,0064291738421843302	2,65191247E-005	0,088051455816403942	-0,0032853182029514752	0,00021822451212303392
1	0	0	1	0	0	2	3164,6639	-0,100000001	3,98431158	2,8042106600151683E-005	0,010095158631079763	4,02222577E-005	0,089384093578378406	-0,0033350407096012698	0,0015508622740974774
1	0	0	1	0	0	2	3904,6639	-0,100000001	3,78143644	2,6715665629086694E-005	0,0096176398694332288	3,63684921E-005	0,090860213647555392	-0,0033901167340468038	0,0030269823432744442
1	0	0	1	0	0	2	4644,6639	-0,100000001	3,47883964	2,2907495875268877E-005	0,0082466986149411712	2,86889426E-005	0,092347153529567616	-0,0034455964602566138	0,0045139222252866534
1	0	0	1	0	0	2	5382,7675	-0,100000001	3,12867904	1,8629360874010467E-005	0,0067065699958415091	2,09827049E-005	0,093754822358768909	-0,0034981184769049837	0,005921591054487849
1	0	0	1	0	0	2	6053,1893	-0,100000001	2,597471	1,2368263172098926E-005	0,0088562630198567091	2,30038859E-005	0,095214979936654682	-0,0035525989193386451	0,0073817486323736448
3	0	0	0	0	0	2	6133,1335	0	2,82372642	0	0	0	0,095361922668611456	-0,0035580815502345568	0,0075286913643304192
3	0	0	0	0	0	2	6164,9799	0	3,19605803	0	0	0	0,095361922668611456	-0,0035580815502345568	0,0075286913643304192
3	0	0	0	0	0	2	6390,6391	0	3,56776071	0	0	0	0,095361922668611456	-0,0035580815502345568	0,0075286913643304192
1	0	0	0	0	0	2	6452,8643	-0,100000001	2,88060403	9,7580020649830771E-007	0,0069123982407842547	1,99118822E-005	0,095429717366779968	-0,0035606110615741651	0,0075964860624988698
3	0	0	1	0	0	2	6491,1367	0	2,68763137	0	0	0	0,095471095385399962	-0,003562154931082215	0,0076378640811188352
3	0	0	1	0	0	2	6522,1753	0	3,05986762	0	0	0	0,095471095385399962	-0,003562154931082215	0,0076378640811188352
3	0	0	1	0	0	2	6641,8451	0	3,43206573	0	0	0	0,095471095385399962	-0,003562154931082215	0,0076378640811188352
1	0	0	1	0	0	2	6802,5997	-0,100000001	3,0649302	9,0220771556778355E-007	0,0086381590833922496	2,64753544E-005	0,095508959649609037	-0,0035635676976888998	0,0076757283453278784
3	0	0	0	0	0	2	6837,0723	0	2,59564924	0	0	0	0,095564568667927782	-0,0035656425449294925	0,0077313373636466867
3	0	0	0	0	0	2	6867,9683	0	2,96794271	0	0	0	0,095564568667927782	-0,0035656425449294925	0,0077313373636466867
3	0	0	0	0	0	2	6968,6127	0	3,33983588	0	0	0	0,095564568667927782	-0,0035656425449294925	0,0077313373636466867
1	0	0	0	0	0	2	7147,3155	-0,100000001	3,12246418	1,2352338899088662E-006	0,01228409408164372	3,83566439E-005	0,095599047372362317	-0,003566928991749056	0,0077658160680812173
3	0	0	1	0	0	2	7175,9421	0	2,56611967	0	0	0	0,095643273394128333	-0,0035685791240836646	0,0078100420898472512
3	0	0	1	0	0	2	7209,9299	0	2,93845129	0	0	0	0,095643273394128333	-0,0035685791240836646	0,0078100420898472512
3	0	0	1	0	0	2	7322,1671	0	3,31040168	0	0	0	0,095643273394128333	-0,0035685791240836646	0,0078100420898472512
1	1	0	0	0	0	1	7495,0019	0,100000001	3,77810025	5,1489911559141344E-005	0,22451996590963459	0,000848258962	0,096309758922507994	-0,0035934465952468339	0,00066648552837967872
1	1	0	0	0	0	1	8147,1514	0,100000001	4,09663439	0,00063398347169450586	0,22823405257329594	0,000934991462	0,13709158965346491	-0,005115071531573417	0,041448316259336563
1	1	0	0	0	0	1	8887,1514	0,100000001	4,29020643	0,00062958439747451072	0,22665038583492394	0,000972376962	0,18371972584657152	-0,0068548299851340992	0,088076452452443149
1	1	0	0	0	0	1	9627,1514	0,100000001	4,44120979	0,00062939308693798042	0,22658151404093917	0,00100629602	0,2302985386543144	-0,0085927481168708621	0,13465526526018606
3	1	0	1	0	0	1	10130,8098	0	4,36036062	0	0	0	0,25949197035008531	-0,0096819943044264448	0,16384869695595693
1	0	0	1	0	0	2	10787,6834	-0,100000001	3,89537978	2,1838846666843488E-005	0,0078619848952502272	3,06254187E-005	0,26012336450007446	-0,0097055524690810022	0,0006313941499889769
1	0	0	1	0	0	2	11498,8256	-0,100000001	3,40757966	2,3797919571068227E-005	0,008567251149309929	2,91935903E-005	0,26192755826580538	-0,0097728693642447398	0,0024355879157199846
1	0	0	1	0	0	2	12222,2534	-0,100000001	2,95966077	2,3471525300717782E-005	0,0084497492105611494	2,50083904E-005	0,26342693801827354	-0,0098288132387468454	0,0039349676681882099
3	0	0	0	0	0	2	12707,7636	0	2,59404802	0	0	0	0,26444652867818458	-0,0098668555371223488	0,0049545583280992563
3	0	0	0	0	0	2	12723,7352	0	2,96660829	0	0	0	0,26444652867818458	-0,0098668555371223488	0,0049545583280992563
3	0	0	0	0	0	2	12796,3072	0	3,33895898	0	0	0	0,26444652867818458	-0,0098668555371223488	0,0049545583280992563
1	0	0	0	0	0	2	13020,3758	-0,100000001	3,12059593	1,0010931946663834E-006	0,0091984061879979149	2,87045095E-005	0,26448067825650141	-0,009868129703803945	0,0049887079064160755
3	0	0	1	0	0	2	13063,9826	0	2,56756854	0	0	0	0,26458907141795978	-0,0098721739983941133	0,0050971010678745613
3	0	0	1	0	0	2	13085,5166	0	2,93993831	0	0	0	0,26458907141795978	-0,0098721739983941133	0,0050971010678745613
3	0	0	1	0	0	2	13171,2014	0	3,31192684	0	0	0	0,26458907141795978	-0,0098721739983941133	0,0050971010678745613
1	1	0	0	0	0	1	13381,6802	0,100000001	3,77668953	2,9022589268783731E-005	0,23043961762720147	0,000870298885	0,26516381419726899	-0,0098936184242400243	0,00057474277930913702
1	1	0	0	0	0	1	13799,8420	0,100000001	4,3204608	0,0006285553535645207	0,22627993002284234	0,000977633521	0,29156317694815251	-0,010878614142796208	0,026974105530192662
1	1	0	0	0	0	1	14539,8420	0,100000001	4,45766163	0,00062399644125998016	0,22463872157333731	0,00100136339	0,33816060378311411	-0,012617226788915331	0,073571532365154291
3	1	0	1	0	0	1	15097,6770	0	4,26550007	0	0	0	0,35550403935609894	-0,013264333688640522	0,090914967938139021
1	0	0	1	0	0	2	15457,9712	-0,100000001	3,58119226	6,254458362259255E-006	0,012653731806598694	4,53154462E-005	0,3564631684455255	-0,013300120084529805	0,00095912908942679232
1	0	0	1	0	0	2	15795,2650	-0,100000001	2,83959818	5,4180491105168275E-006	0,0046365353793715123	1,31658971E-005	0,35730037820785126	-0,013331357506402675	0,001796338851752473
3	0	0	0	0	0	2	16035,8598	0	2,69977474	0	0	0	0,35776557027610048	-0,013348714447926442	0,0022615309200015814
3	0	0	0	0	0	2	16066,1904	0	3,07216358	0	0	0	0,35776557027610048	-0,013348714447926442	0,0022615309200015814
1	1	0	0	1	0	1	16340,7103	0,100000001	3,39725828	1,2706424627039168E-008	0,22871564906454832	0,000777006149	0,35776558298252506	-0,013348714922020229	1,2706424627039168E-008
1	1	0	0	0	0	1	16375,6113	0,100000001	4,1429019	4,0088537720342483E-005	0,22182406630954112	0,000918995356	0,3599310714704233	-0,013429512209033949	0,0021655011943226883
3	1	0	1	0	0	1	16878,5331	0	4,46101665	0	0	0	0,39110520150286803	-0,014592660914608067	0,03333963122676768
1	0	0	1	0	0	2	17270,5405	-0,100000001	3,93045688	1,4014854645633021E-005	0,0064702194638422093	2,5430918E-005	0,39128852097200506	-0,014599500810477216	0,00018331946913689738
1	0	0	1	0	0	2	17504,3425	-0,100000001	3,19810867	1,5230243572021008E-006	0,0068932458540534554	2,20453494E-005	0,39176073806240275	-0,014617119865022586	0,00065553655953455642
3	0	0	0	0	0	2	17642,4683	0	2,53012753	0	0	0	0,3920597166999337	-0,01462827515996992	0,00095451519706542771
3	0	0	0	0	0	2	17662,9467	0	2,90224957	0	0	0	0,3920597166999337	-0,01462827515996992	0,00095451519706542771
3	0	0	0	0	0	2	17873,3735	0	3,27421904	0	0	0	0,3920597166999337	-0,01462827515996992	0,00095451519706542771
1	1	0	0	0	0	1	17976,8823	0,100000001	3,8816731	3,1793720246189171E-005	0,22522116148531472	0,000874234946	0,39358764200080512	-0,014685284107262848	0,0015279253008713318
1	1	0	0	0	0	1	18279,4065	0,100000001	4,48606634	0,00062389424393160474	0,22460193053467677	0,00100757915	0,41231551823773504	-0,015384046349560102	0,020255801537801203
1	0	0	1	0	0	2	18671,6749	-0,100000001	4,0215621	5,4128160243821587E-006	0,0056013964366819917	2,2526363E-005	0,41533311595391834	-0,015496636977554182	7,8697049943951757E-005
1	0	0	1	0	0	2	18935,7649	-0,100000001	3,28582048	1,502822414679233E-006	0,0081209257854365888	2,66839052E-005	0,41594609221113018	-0,015519507945866096	0,00069167330715574554
1	0	0	1	0	0	2	19022,1349	-0,100000001	2,53925085	5,0769453597167738E-006	0,0091798109071380493	2,33098435E-005	0,41617076818425606	-0,015527890908503485	0,00091634928028169613
3	0	0	0	0	0	2	19052,7213	0	2,86192989	0	0	0	0,41619718708970445	-0,015528876633386362	0,00094276818573006515
3	0	0	0	0	0	2	19269,3573	0	3,23378515	0	0	0	0,41619718708970445	-0,015528876633386362	0,00094276818573006515
1	1	0	0	0	0	1	19365,1461	0,100000001	3,8412199	3,4159424940331117E-005	0,22985781546328419	0,00088293443	0,41769659373168294	-0,015584821511172246	0,0014994066419783571
1	1	0	0	0	0	1	19624,2895	0,100000001	4,47948933	0,00062669706287028058	0,22561094536481638	0,00101062178	0,43395432063607942	-0,016191419160721581	0,017757133546374739
1	0	0	1	0	0	2	20028,6631	-0,100000001	4,02476454	7,8007162518333645E-006	0,009172517261222857	3,6917223E-005	0,43770654873615315	-0,01633141983605967	9,4827677007360371E-005
1	0	0	1	0	0	2	20290,2127	-0,100000001	3,28635406	1,6009382573069565E-006	0,0090704718222732083	2,98087816E-005	0,4383213279858665	-0,016354358076445968	0,0007096069267208137
1	0	0	1	0	0	2	20363,9523	-0,100000001	2,54010868	2,2560263591553344E-006	0,004548949810400375	1,15548273E-005	0,43844458154262234	-0,016358956832364694	0,00083286048347636672
3	0	0	0	0	0	2	20394,8829	0	2,85731649	0	0	0	0,43845729147571789	-0,016359431057057178	0,000845570416571904
3	0	0	0	0	0	2	20643,7341	0	3,22911453	0	0	0	0,43845729147571789	-0,016359431057057178	0,000845570416571904
3	0	0	0	0	0	2	20672,0303	0	3,24125791	0	0	0	0,43845729147571789	-0,016359431057057178	0,000845570416571904