File: Experimentelles/Rohdaten/Batteriemessungen/AlteZelle/Studenten_Batterietests/SemArbeitToph/ECLab-Export/Al_Struktur_01_Laden_IS_02_OCV_C03.mpt
EC-Lab ASCII FILE
Nb header lines : 43

Open Circuit Voltage

Run on channel : 3 (SN 6987)
Grouped channel(s) : 3
User :
CE vs. WE compliance from -10 V to 10 V
Electrode connection : standard
Ewe ctrl range : min = -10,00 V, max = 10,00 V
Acquisition started on : 03.16.2015 13:07:36
Saved on :
	File : Al_Struktur_01_Laden_IS_02_OCV_C03.mpr
	Directory : C:\Hupfer\Studenten Batterietests\SemArbeitToph\
	Host : 192.168.0.2
Device : VMP3 (SN 0324)
Address : 192.168.0.1
EC-Lab for windows v10.33 (software)
Internet server v10.33 (firmware)
Command interpretor v10.32 (firmware)
Electrode material :
Initial state :
Electrolyte :
Comments :
Mass of active material : 0,001 mg
 at x = 0,000
Molecular weight of active material (at x = 0) : 0,001 g/mol
Atomic weight of intercalated ion : 0,001 g/mol
Acquisition started at : xo = 0,000
Number of e- transfered per intercalated ion : 1
for DX = 1, DQ = 26,801 mA.h
Battery capacity : 0,000 A.h
Electrode surface area : 0,001 cm²
Characteristic mass : 0,001 g
tR (h:m:s)          0:10:0,0000
dER/dt (mV/h)       1,0
dER (mV)            1,00
dtR (s)             0,5000
E range min (V)     -10,000
E range max (V)     10,000

mode	error	time/s	Ewe/V
3	0	12185,5582	4,19946098
3	0	12188,0582	4,19829798
3	0	12190,5582	4,19753551
3	0	12193,0582	4,19684935
3	0	12195,5582	4,19602919
3	0	12198,0582	4,19534302
3	0	12200,5582	4,19471407
3	0	12203,0582	4,19400883
3	0	12205,5582	4,19336033
3	0	12208,0582	4,19271231
3	0	12210,5582	4,19212151
3	0	12213,0582	4,19139671
3	0	12215,5582	4,19076777
3	0	12218,0582	4,19002438
3	0	12220,5582	4,18947172
3	0	12223,0582	4,18891859
3	0	12225,5582	4,18844223
3	0	12228,0582	4,18783188
3	0	12230,5582	4,18706942
3	0	12233,0582	4,18674564
3	0	12235,5582	4,18613529
3	0	12238,0582	4,18556356
3	0	12240,5582	4,18499136
3	0	12243,0582	4,18440056
3	0	12245,5582	4,1838479
3	0	12248,0582	4,18352365
3	0	12250,5582	4,18295193
3	0	12253,0582	4,18237972
3	0	12255,5582	4,18197966
3	0	12258,0582	4,1813693
3	0	12260,5582	4,1808548
3	0	12263,0582	4,18030214
3	0	12265,5582	4,17984438
3	0	12268,0582	4,17936802
3	0	12270,5582	4,17883396
3	0	12273,0582	4,17854786
3	0	12275,5582	4,1780715
3	0	12278,0582	4,1774044
3	0	12280,5582	4,17709923
3	0	12283,0582	4,17664146
3	0	12285,5582	4,17622232
3	0	12288,0582	4,17568874
3	0	12290,5582	4,1752882
3	0	12293,0582	4,17494488
3	0	12295,5582	4,17437315
3	0	12298,0582	4,17391539
3	0	12300,5582	4,17362976
3	0	12303,0582	4,17322922
3	0	12305,5582	4,17271471
3	0	12308,0582	4,17237139
3	0	12310,5582	4,17208529
3	0	12313,0582	4,17157078
3	0	12315,5582	4,17105627
3	0	12318,0582	4,17073202
3	0	12320,5582	4,1703124
3	0	12323,0582	4,17004585
3	0	12325,5582	4,16964531
3	0	12328,0582	4,16909266
3	0	12330,5582	4,16880655
3	0	12333,0582	4,16850138
3	0	12335,5582	4,16806316
3	0	12338,0582	4,16766262
3	0	12340,5582	4,16735792
3	0	12343,0582	4,16695738
3	0	12345,5582	4,16655684
3	0	12348,0582	4,16625214
3	0	12350,5582	4,16594696
3	0	12353,0582	4,16550875
3	0	12355,5582	4,1651845
3	0	12358,0582	4,16474581
3	0	12360,5582	4,16461277
3	0	12363,0582	4,16419315
3	0	12365,5582	4,16381168
3	0	12368,0582	4,16343069
3	0	12370,5582	4,16310644
3	0	12373,0582	4,16287756
3	0	12375,5582	4,16236305
3	0	12378,0582	4,16219139
3	0	12380,5582	4,16186762
3	0	12383,0582	4,16161966
3	0	12385,5582	4,1611619
3	0	12388,0582	4,16089535
3	0	12390,5582	4,16047573
3	0	12393,0582	4,16018963
3	0	12395,5582	4,159904
3	0	12398,0582	4,15967512
3	0	12400,5582	4,15919828
3	0	12403,0582	4,15906525
3	0	12405,5582	4,15868378
3	0	12408,0582	4,15847397
3	0	12410,5582	4,1581502
3	0	12413,0582	4,15776873
3	0	12415,5582	4,15753984
3	0	12418,0582	4,15734911
3	0	12420,5582	4,15694904
3	0	12423,0582	4,15666294
3	0	12425,5582	4,15637684
3	0	12428,0582	4,15620565
3	0	12430,5582	4,15580511
3	0	12433,0582	4,15551901
3	0	12435,5582	4,15525246
3	0	12438,0582	4,15494728
3	0	12440,5582	4,1547184
3	0	12443,0582	4,1544137
3	0	12445,5582	4,1540513
3	0	12448,0582	4,15387964
3	0	12450,5582	4,15344143
3	0	12453,0582	4,15336514
3	0	12455,5582	4,15305996
3	0	12458,0582	4,152812
3	0	12460,5582	4,15254545
3	0	12463,0582	4,15225935
3	0	12465,5582	4,15203047
3	0	12468,0582	4,15182066
3	0	12470,5582	4,15143967
3	0	12473,0582	4,15124893
3	0	12475,5582	4,1509819
3	0	12478,0582	4,15092468
3	0	12480,5582	4,15044832
3	0	12483,0582	4,15029573
3	0	12485,5582	4,15000963
3	0	12488,0582	4,14968586
3	0	12490,5582	4,14960957
3	0	12493,0582	4,14934254
3	0	12495,5582	4,14907551
3	0	12498,0582	4,14882803
3	0	12500,5582	4,14871359
3	0	12503,0582	4,14842749
3	0	12505,5582	4,14831305
3	0	12508,0582	4,14793205
3	0	12510,5582	4,14770317
3	0	12513,0582	4,14747429
3	0	12515,5582	4,14735985
3	0	12518,0582	4,14703608
3	0	12520,5582	4,14684534
3	0	12523,0582	4,14663553
3	0	12525,5582	4,14638758
3	0	12528,0582	4,1461401
3	0	12530,5582	4,14593029
3	0	12533,0582	4,14560604
3	0	12535,5582	4,14541531
3	0	12538,0582	4,14528227
3	0	12540,5582	4,14493895
3	0	12543,0582	4,1449008
3	0	12545,5582	4,14463377
3	0	12548,0582	4,14440489
3	0	12550,5582	4,14431
3	0	12553,0582	4,14400482
3	0	12555,5582	4,14375687
3	0	12558,0582	4,14356613
3	0	12560,5582	4,14328051
3	0	12563,0582	4,14328051
3	0	12565,5582	4,14295626
3	0	12568,0582	4,14272738
3	0	12570,5582	4,14255571
3	0	12573,0582	4,14232731
3	0	12575,5582	4,14213657
3	0	12578,0582	4,14202213
3	0	12580,5582	4,14171696
3	0	12583,0582	4,14158392
3	0	12585,5582	4,14133596
3	0	12588,0582	4,14120245
3	0	12590,5582	4,14106894
3	0	12593,0582	4,14061165
3	0	12595,5582	4,1405735
3	0	12598,0582	4,14047813
3	0	12600,5582	4,14024925
3	0	12603,0582	4,13996315
3	0	12605,5582	4,13984871
3	0	12608,0582	4,13954401
3	0	12610,5582	4,13948679
3	0	12613,0582	4,1393342
3	0	12615,5582	4,13918161
3	0	12618,0582	4,13893366
3	0	12620,5582	4,13872433
3	0	12623,0582	4,13855267
3	0	12625,5582	4,138381
3	0	12628,0582	4,13826656
3	0	12630,5582	4,13805676
3	0	12633,0582	4,13788557
3	0	12635,5582	4,13769484
3	0	12638,0582	4,13746595
3	0	12640,5582	4,13735151
3	0	12643,0582	4,1371417
3	0	12645,5582	4,13697052
3	0	12648,0582	4,13676071
3	0	12650,5582	4,13668442
3	0	12653,0582	4,13645554
3	0	12655,5582	4,13624573
3	0	12658,0582	4,13605547
3	0	12660,5582	4,1359601
3	0	12663,0582	4,13582659
3	0	12665,5582	4,13569307
3	0	12668,0582	4,13550234
3	0	12670,5582	4,13527346
3	0	12673,0582	4,13506413
3	0	12675,5582	4,1350069
3	0	12678,0582	4,1347971
3	0	12680,5582	4,1347208
3	0	12683,0582	4,13456821
3	0	12685,5582	4,13430119
3	0	12688,0582	4,13416815
3	0	12690,5582	4,13403463
3	0	12693,0582	4,13386297
3	0	12695,5582	4,13367224
3	0	12698,0582	4,1335578
3	0	12700,5582	4,13342428
3	0	12703,0582	4,13332891
3	0	12705,5582	4,13315773
3	0	12708,0582	4,1328907
3	0	12710,5582	4,13281441
3	0	12713,0582	4,13264275
3	0	12715,5582	4,13250923
3	0	12718,0582	4,13250923
3	0	12720,5582	4,13214731
3	0	12723,0582	4,13214731
3	0	12725,5582	4,13186121
3	0	12728,0582	4,1317277
3	0	12730,5582	4,13157511
3	0	12733,0582	4,131423
3	0	12735,5582	4,13123226
3	0	12738,0582	4,13127041
3	0	12740,5582	4,13111782
3	0	12743,0582	4,13100338
3	0	12745,5582	4,13096523
3	0	12748,0582	4,13062191
3	0	12750,5582	4,13045073
3	0	12753,0582	4,13029814
3	0	12755,5582	4,13025999
3	0	12758,0582	4,13008833
3	0	12760,5582	4,13001204
3	0	12763,0582	4,12980223
3	0	12765,5582	4,12966871
3	0	12768,0582	4,12955475
3	0	12770,5582	4,12947845
3	0	12773,0582	4,12921143
3	0	12775,5582	4,12909698
3	0	12778,0582	4,12898254
3	0	12780,5582	4,12873459
3	0	12783,0582	4,12865877
3	0	12785,5582	4,12854433