File: Experimentelles/Rohdaten/Batteriemessungen/AlteZelle/Studenten_Batterietests/SemArbeitToph/ECLab-Export/Al_Struktur_01_Laden_IS_01_GCPL_C03.mpt
EC-Lab ASCII FILE
Nb header lines : 68

Galvanostatic Cycling with Potential Limitation

Run on channel : 3 (SN 6987)
Grouped channel(s) : 3
User :
CE vs. WE compliance from -10 V to 10 V
Electrode connection : standard
Ewe ctrl range : min = -10,00 V, max = 10,00 V
Acquisition started on : 03.16.2015 13:07:36
Saved on :
	File : Al_Struktur_01_Laden_IS_01_GCPL_C03.mpr
	Directory : C:\Hupfer\Studenten Batterietests\SemArbeitToph\
	Host : 192.168.0.2
Device : VMP3 (SN 0324)
Address : 192.168.0.1
EC-Lab for windows v10.33 (software)
Internet server v10.33 (firmware)
Command interpretor v10.32 (firmware)
Electrode material :
Initial state :
Electrolyte :
Comments :
Mass of active material : 0,001 mg
 at x = 0,000
Molecular weight of active material (at x = 0) : 0,001 g/mol
Atomic weight of intercalated ion : 0,001 g/mol
Acquisition started at : xo = 0,000
Number of e- transfered per intercalated ion : 1
for DX = 1, DQ = 26,801 mA.h
Battery capacity : 0,000 A.h
Electrode surface area : 0,001 cm²
Characteristic mass : 0,001 g
Ns                  0                   1
Set I/C             I                   I
Is                  0,000               50,000
unit Is             mA                  µA
vs.                 <None>              <None>
N                   1                   1
I sign              > 0                 > 0
t1 (h:m:s)          0:00:0,0000         4:00:0,0000
I Range             100 mA              100 mA
Bandwidth           5                   5
dE1 (mV)            0,00                10,00
dt1 (s)             0,0000              10,0000
EM (V)              0,000               4,200
tM (h:m:s)          0:00:0,0000         0:30:0,0000
Im                  0,000               0,000
unit Im             mA                  mA
E range min (V)     -10,000             -10,000
E range max (V)     10,000              10,000
dq                  0,000               1,000
unit dq             mA.h                mA.h
dtq (s)             0,0000              120,0000
dQM                 0,000               0,000
unit dQM            mA.h                mA.h
dxM                 0,000               0,000
tR (h:m:s)          0:00:0,0000         0:02:0,0000
dER/dt (mV/h)       0,0                 0,1
dER (mV)            0,00                5,00
dtR (s)             1,0000              120,0000
EL (V)              pass                4,200
goto Ns'            0                   0
nc cycles           0                   0

mode	ox/red	error	control changes	Ns changes	counter inc.	Ns	time/s	control/V/mA	Ewe/V	dq/mA.h	<I>/mA	P/W	(Q-Qo)/mA.h	x	Capacity/mA.h
1	1	0	1	1	0	1	0,0004	0,0500000007	4,11445618	0	0	0	0	0	0
1	1	0	1	0	0	1	1,5674	0,0500000007	4,14451933	1,2142964927065702E-005	0,059105834020770829	0,000244965282	2,4881087179088758E-005	-9,2834681562930291E-007	2,4881087179088758E-005
1	1	0	1	0	0	1	3,9826	0,0500000007	4,17456388	1,3606712252522509E-005	0,059245483002570317	0,00024732406	6,4560553491426022E-005	-2,408841053352463E-006	6,4560553491426022E-005
1	1	0	1	0	0	1	6,2260	0,0500000007	4,19997549	8,2071255068812109E-006	0,059138616035144755	0,000248380733	0,0001014241639842383	-3,7842719244907302E-006	0,0001014241639842383
2	1	0	0	0	0	1	246,2266	4,2001214	4,19944191	0,00030235044680585754	0,0090704985158186483	3,80910315E-005	0,00074738753022897843	-2,7886033626064906E-005	0,00074738753022897843
2	1	0	0	0	0	1	606,2272	4,2001214	4,19942284	0,00029611619548361498	0,0088834712831387123	3,73054536E-005	0,0016425631598483386	-6,1286239943597888E-005	0,0016425631598483386
2	1	0	0	0	0	1	966,2278	4,2001214	4,19942284	0,00029546367883025152	0,0088638958156690688	3,72232462E-005	0,0025310349087432992	-9,4436315457840026E-005	0,0025310349087432992
2	1	0	0	0	0	1	1326,2284	4,2001214	4,19938469	0,00028537376978221357	0,0085611990410757786	3,5951769E-005	0,0033866302230851584	-0,00012635972699606958	0,0033866302230851584
2	1	0	0	0	0	1	1686,2290	4,2001214	4,19948006	0,00028365190106343974	0,0085095430643009152	3,57356548E-005	0,0042375059396292243	-0,00015810704399489674	0,0042375059396292243
3	1	0	1	0	0	1	1818,7426	0	4,19450426	0	0	0	0,0045215598252182675	-0,00016870547638073498	0,0045215598252182675
3	1	0	1	0	0	1	1873,5370	0	4,17944384	0	0	0	0,0045215598252182675	-0,00016870547638073498	0,0045215598252182675
3	1	0	1	0	0	1	1926,2262	0,0500000007	4,17103195	0	0	0	0,0045215598252182675	-0,00016870547638073498	0,0045215598252182675
1	1	0	1	0	0	1	1927,3062	0,0500000007	4,19389439	1,1359685960743162E-005	0,058824612329929101	0,000246704207	0,0045392032094234451	-0,00016936377476721251	0,0045392032094234451
2	1	0	0	0	0	1	2047,7727	4,2001214	4,19940376	0,00029824011941223418	0,0089471888964109107	3,75728596E-005	0,0048450659112079571	-0,0001807759234075689	0,0048450659112079571
2	1	0	0	0	0	1	2407,7733	4,2001214	4,19949913	0,00028209057123203338	0,0084627032462418138	3,55391167E-005	0,0056973529207569466	-0,00021257589764591338	0,0056973529207569466
2	1	0	0	0	0	1	2767,7739	4,2001214	4,19944191	0,00028131347782637747	0,0084393904823378112	3,54407312E-005	0,0065373635797178816	-0,00024391782473808864	0,0065373635797178816
2	1	0	0	0	0	1	3127,7745	4,2001214	4,19944191	0,00028022754136733254	0,0084068124420402061	3,53039213E-005	0,0073816000909208333	-0,00027541742405913235	0,0073816000909208333
2	1	0	0	0	0	1	3487,7751	4,2001214	4,19946098	0,00028071163347785318	0,0084213351815181338	3,53650685E-005	0,0082251721333215283	-0,00030689223115577594	0,0082251721333215283
3	1	0	1	0	0	1	3727,7727	4,2001214	4,19957542	0	0	0	0,0087812605215467558	-0,00032764063658924902	0,0087812605215467558
3	1	0	1	0	0	1	3778,2405	0	4,18453407	0	0	0	0,0087812605215467558	-0,00032764063658924902	0,0087812605215467558
3	1	0	1	0	0	1	3847,7725	0,0500000007	4,17279387	0	0	0	0,0087812605215467558	-0,00032764063658924902	0,0087812605215467558
1	1	0	1	0	0	1	3848,8141	0,0500000007	4,19631529	1,1076812142920163E-005	0,059216698428687744	0,000248491939	0,0087984013918691251	-0,00032828018550712186	0,0087984013918691251
2	1	0	0	0	0	1	3969,0931	4,2001214	4,19949913	0,00029568694883064986	0,0088705939046867456	3,72520517E-005	0,0090986888901248768	-0,00033948431580787936	0,0090986888901248768
2	1	0	0	0	0	1	4329,0933	4,2001214	4,19948006	0,00027852890722114374	0,0083558673178004134	3,50902992E-005	0,0099321122583498765	-0,00037058046222599027	0,0099321122583498765
2	1	0	0	0	0	1	4689,0933	4,2001214	4,19957542	0,00027337362636714368	0,0082012088903079334	3,44415967E-005	0,010751691795785478	-0,00040116007670412026	0,010751691795785478
2	1	0	0	0	0	1	5049,0933	4,2001214	4,19948006	0,00027579238981661104	0,008273771794670487	3,47455389E-005	0,011578896615593725	-0,00043202420071987488	0,011578896615593725
2	1	0	0	0	0	1	5409,0933	4,2001214	4,19936562	0,00024589858628117914	0,0073769576777496282	3,09785428E-005	0,012376230404418091	-0,00046177379640759264	0,012376230404418091
3	1	0	1	0	0	1	5649,0931	4,2001214	4,19942284	0	0	0	0,012910370191195691	-0,00048170327001084621	0,012910370191195691
3	1	0	1	0	0	1	5702,5043	0	4,18438148	0	0	0	0,012910370191195691	-0,00048170327001084621	0,012910370191195691
3	1	0	1	0	0	1	5769,0929	0,0500000007	4,17399502	0	0	0	0,012910370191195691	-0,00048170327001084621	0,012910370191195691
1	1	0	1	0	0	1	5770,0965	0,0500000007	4,1977644	1,0998460666173034E-005	0,059379812353654502	0,000249262463	0,012926914694705898	-0,0004823205676811335	0,012926914694705898
2	1	0	0	0	0	1	5890,2675	4,2001214	4,19953728	0,00029938291889696685	0,0089814876756496141	3,77180913E-005	0,013229117757712085	-0,00049359617027823392	0,013229117757712085
2	1	0	0	0	0	1	6250,2675	4,2001214	4,19955635	0,00027177937546628691	0,0081533813627031731	3,42405838E-005	0,01406052852137345	-0,0005246172237141001	0,01406052852137345
2	1	0	0	0	0	1	6610,2675	4,2001214	4,1995182	0,00027303363029935606	0,0081910090081508122	3,43982902E-005	0,014871560207991754	-0,00055487790638552909	0,014871560207991754
2	1	0	0	0	0	1	6970,2675	4,2001214	4,19940376	0,00027424145617183402	0,0082272437847638528	3,45495173E-005	0,015693147896907638	-0,00058553244769537677	0,015693147896907638
2	1	0	0	0	0	1	7330,2675	4,2001214	4,19942284	0,00026940035785471264	0,008082010833491849	3,39397811E-005	0,016506780880511434	-0,00061589018825481536	0,016506780880511434
3	1	0	1	0	0	1	7570,2677	4,2001214	4,19948006	0	0	0	0,017047778681503322	-0,00063607554358910234	0,017047778681503322
3	1	0	1	0	0	1	7625,3971	0	4,18443871	0	0	0	0,017047778681503322	-0,00063607554358910234	0,017047778681503322
3	1	0	1	0	0	1	7690,2675	0,0500000007	4,17439508	0	0	0	0,017047778681503322	-0,00063607554358910234	0,017047778681503322
1	1	0	1	0	0	1	7691,1691	0,0500000007	4,19803095	1,0349525792938141E-005	0,05908387774456759	0,00024803594	0,01706259317019905	-0,00063662829208063181	0,01706259317019905
2	1	0	0	0	0	1	7811,3287	4,2001214	4,1995182	0,00029485331564990982	0,008845599576592681	3,71472561E-005	0,017360065739506512	-0,00064772739359761638	0,017360065739506512
2	1	0	0	0	0	1	8171,3286	4,2001214	4,19938469	0,0002714190114539831	0,0081425704422031706	3,41937848E-005	0,018187701256267856	-0,00067860758749576922	0,018187701256267856
2	1	0	0	0	0	1	8531,3286	4,2001214	4,19948006	0,00027235423933123011	0,0081706272788602675	3,43123866E-005	0,019010462576908048	-0,00070930591858321549	0,019010462576908048
2	1	0	0	0	0	1	8891,3286	4,2001214	4,1995182	0,00027008194128470982	0,0081024583366393254	3,40264196E-005	0,01982266046960399	-0,00073961011397138189	0,01982266046960399
2	1	0	0	0	0	1	9251,3286	4,2001214	4,1995182	0,00027155462095698752	0,0081466387273425574	3,42119565E-005	0,02063348529437721	-0,00076986307834924211	0,02063348529437721
3	1	0	1	0	0	1	9491,3288	4,2001214	4,19946098	0	0	0	0,021166267602620346	-0,00078974190260322547	0,021166267602620346
3	1	0	1	0	0	1	9547,6144	0	4,18441963	0	0	0	0,021166267602620346	-0,00078974190260322547	0,021166267602620346
3	1	0	1	0	0	1	9611,3286	0,0500000007	4,17519617	0	0	0	0,021166267602620346	-0,00078974190260322547	0,021166267602620346
1	1	0	1	0	0	1	9612,1940	0,0500000007	4,19862223	1,0162615617944134E-005	0,059469142827807949	0,000249688455	0,021180562224118563	-0,00079027525415064704	0,021180562224118563
2	1	0	0	0	0	1	9732,3014	4,2001214	4,19938469	0,0002902475094860921	0,0087074253900052467	3,65658307E-005	0,021472580631624966	-0,00080117085355763546	0,021472580631624966
2	1	0	0	0	0	1	10092,3014	4,2001214	4,19944191	0,00026187309632080563	0,0078561929847406182	3,29916256E-005	0,022274015235698493	-0,00083107345617590426	0,022274015235698493
2	1	0	0	0	0	1	10452,3014	4,2001214	4,19948006	0,00026897549542008589	0,008069264960298729	3,38867176E-005	0,02303867170881769	-0,00085960381727954381	0,02303867170881769
2	1	0	0	0	0	1	10812,3014	4,2001214	4,19948006	0,00026171273418601613	0,0078513821206386854	3,29717222E-005	0,023831736716932227	-0,00088919413901954112	0,023831736716932227
2	1	0	0	0	0	1	11172,3014	4,2001214	4,19934654	0,00026654976589048845	0,0079964930735297421	3,35800469E-005	0,024627427279525846	-0,00091888242372724851	0,024627427279525846
3	1	0	1	0	0	1	11412,3016	4,2001214	4,19955635	0	0	0	0,025159611597807568	-0,0009387389361717655	0,025159611597807568
3	1	0	1	0	0	1	11468,6596	0	4,18449593	0	0	0	0,025159611597807568	-0,0009387389361717655	0,025159611597807568
3	1	0	1	0	0	1	11532,3014	0,0500000007	4,17599678	0	0	0	0,025159611597807568	-0,0009387389361717655	0,025159611597807568
1	1	0	1	0	0	1	11533,1202	0,0500000007	4,19867945	9,8510135755770739E-006	0,059343455993376333	0,00024916415	0,02517311211092119	-0,00093924265846766758	0,02517311211092119
2	1	0	0	0	0	1	11653,2158	4,2001214	4,19953728	0,00028987650182783546	0,008696295160122793	3,65204141E-005	0,025464571319730259	-0,000950117393419408	0,025464571319730259
2	1	0	0	0	0	1	12013,2158	4,2001214	4,19934654	0,00027624115626345805	0,0082872347882388954	3,48009708E-005	0,026287341905008755	-0,00098081607018296576	0,026287341905008755
2	1	0	0	0	0	1	12185,5080	4,2001214	4,19953728	0,00012107007862310357	0,0083349388306504371	3,50028859E-005	0,026685895548843603	-0,00099568664249551731	0,026685895548843603