File: Experimentelles/Rohdaten/Batteriemessungen/AlteZelle/Studenten_Batterietests/SemArbeitToph/ECLab-Export/Al_Sand_01_Zyklieren_01_OCV_C02.mpt
EC-Lab ASCII FILE
Nb header lines : 46

Open Circuit Voltage

Run on channel : 2 (SN 6986)
Grouped channel(s) : 2
User :
CE vs. WE compliance from -10 V to 10 V
Electrode connection : standard
Ewe ctrl range : min = 0,00 V, max = 5,00 V
Acquisition started on : 03.16.2015 02:19:24
Saved on :
	File : Al_Sand_01_Zyklieren_01_OCV_C02.mpr
	Directory : C:\Hupfer\Studenten Batterietests\SemArbeitToph\
	Host : 192.168.0.2
Device : VMP3 (SN 0324)
Address : 192.168.0.1
EC-Lab for windows v10.33 (software)
Internet server v10.33 (firmware)
Command interpretor v10.32 (firmware)
Electrode material :
Initial state :
Electrolyte :
Comments :
Mass of active material : 0,001 mg
 at x = 0,000
Molecular weight of active material (at x = 0) : 0,001 g/mol
Atomic weight of intercalated ion : 0,001 g/mol
Acquisition started at : xo = 0,000
Number of e- transfered per intercalated ion : 1
for DX = 1, DQ = 26,801 mA.h
Battery capacity : 0,000 A.h
Electrode surface area : 0,001 cm²
Characteristic mass : 0,001 g
tR (h:m:s)          0:10:0,0000
dER/dt (mV/h)       1,0
dER (mV)            1,00
dtR (s)             0,5000
E range min (V)     0,000
E range max (V)     5,000

Number of loops : 1
Loop 0 from point number 0 to 1200

mode	error	time/s	Ewe/V
3	0	0,0000	3,65360212
3	0	2,5000	3,65344954
3	0	5,0000	3,65337324
3	0	7,5000	3,65327787
3	0	10,0000	3,65323973
3	0	12,5000	3,65314436
3	0	15,0000	3,65306807
3	0	17,5000	3,65301085
3	0	20,0000	3,65287733
3	0	22,5000	3,6526866
3	0	25,0000	3,65264845
3	0	27,5000	3,65241957
3	0	30,0000	3,65243864
3	0	32,5000	3,65236235
3	0	35,0000	3,65220976
3	0	37,5000	3,65220976
3	0	40,0000	3,65205717
3	0	42,5000	3,65201902
3	0	45,0000	3,65190458
3	0	47,5000	3,65173292
3	0	50,0000	3,65158033
3	0	52,5000	3,65146589
3	0	55,0000	3,65142775
3	0	57,5000	3,65133238
3	0	60,0000	3,65137053
3	0	62,5000	3,65127516
3	0	65,0000	3,65114164
3	0	67,5000	3,65104628
3	0	70,0000	3,65098906
3	0	72,5000	3,65079832
3	0	75,0000	3,65076017
3	0	77,5000	3,65062666
3	0	80,0000	3,65072203
3	0	82,5000	3,650455
3	0	85,0000	3,65035963
3	0	87,5000	3,65022612
3	0	90,0000	3,65001631
3	0	92,5000	3,65001631
3	0	95,0000	3,64994001
3	0	97,5000	3,64984465
3	0	100,0000	3,64974928
3	0	102,5000	3,64973021
3	0	105,0000	3,64963484
3	0	107,5000	3,64946318
3	0	110,0000	3,64936781
3	0	112,5000	3,64940596
3	0	115,0000	3,64925337
3	0	117,5000	3,64927244
3	0	120,0000	3,64902449
3	0	122,5000	3,64904356
3	0	125,0000	3,64881468
3	0	127,5000	3,64877653
3	0	130,0000	3,64870024
3	0	132,5000	3,64868116
3	0	135,0000	3,64849043
3	0	137,5000	3,64831877
3	0	140,0000	3,64835691
3	0	142,5000	3,64833784
3	0	145,0000	3,64818525
3	0	147,5000	3,64807081
3	0	150,0000	3,64795637
3	0	152,5000	3,64778471
3	0	155,0000	3,64774656
3	0	157,5000	3,64770842
3	0	160,0000	3,64763212
3	0	162,5000	3,64751768
3	0	165,0000	3,64742231
3	0	167,5000	3,64732695
3	0	170,0000	3,64719343
3	0	172,5000	3,64713621
3	0	175,0000	3,64704084
3	0	177,5000	3,64694548
3	0	180,0000	3,64688826
3	0	182,5000	3,64671659
3	0	185,0000	3,64667845
3	0	187,5000	3,64665937
3	0	190,0000	3,64662123
3	0	192,5000	3,64639235
3	0	195,0000	3,64629698
3	0	197,5000	3,64629698
3	0	200,0000	3,64604902
3	0	202,5000	3,64604902
3	0	205,0000	3,64589643
3	0	207,5000	3,64576292
3	0	210,0000	3,64576292
3	0	212,5000	3,64559126
3	0	215,0000	3,64561033
3	0	217,5000	3,64549589
3	0	220,0000	3,64538145
3	0	222,5000	3,64522886
3	0	225,0000	3,64520979
3	0	227,5000	3,64501905
3	0	230,0000	3,64503813
3	0	232,5000	3,64484739
3	0	235,0000	3,64479017
3	0	237,5000	3,64465666
3	0	240,0000	3,64461851
3	0	242,5000	3,64456129
3	0	245,0000	3,64444685
3	0	247,5000	3,64437056
3	0	250,0000	3,64433241
3	0	252,5000	3,64419889
3	0	255,0000	3,64397001
3	0	257,5000	3,64398909
3	0	260,0000	3,64387465
3	0	262,5000	3,6437602
3	0	265,0000	3,64370298
3	0	267,5000	3,64372206
3	0	270,0000	3,64349318
3	0	272,5000	3,64341688
3	0	275,0000	3,64328337
3	0	277,5000	3,64316893
3	0	280,0000	3,64313078
3	0	282,5000	3,64303541
3	0	285,0000	3,64288282
3	0	287,5000	3,64278746
3	0	290,0000	3,64271116
3	0	292,5000	3,64257765
3	0	295,0000	3,64250135
3	0	297,5000	3,64234877
3	0	300,0000	3,64183378
3	0	302,5000	3,64185286
3	0	305,0000	3,64164305
3	0	307,5000	3,64162397
3	0	310,0000	3,64156675
3	0	312,5000	3,64135695
3	0	315,0000	3,64133787
3	0	317,5000	3,64118528
3	0	320,0000	3,64107084
3	0	322,5000	3,64089918
3	0	325,0000	3,64089918
3	0	327,5000	3,64072752
3	0	330,0000	3,64061308
3	0	332,5000	3,64057493
3	0	335,0000	3,64040327
3	0	337,5000	3,64019346
3	0	340,0000	3,64046049
3	0	342,5000	3,64019346
3	0	345,0000	3,64007902
3	0	347,5000	3,63988829
3	0	350,0000	3,63979292
3	0	352,5000	3,63975477
3	0	355,0000	3,63964033
3	0	357,5000	3,63950682
3	0	360,0000	3,6394496
3	0	362,5000	3,6394496
3	0	365,0000	3,63929701
3	0	367,5000	3,63922071
3	0	370,0000	3,63891554
3	0	372,5000	3,63897276
3	0	375,0000	3,63882017
3	0	377,5000	3,6387248
3	0	380,0000	3,63855314
3	0	382,5000	3,6384387
3	0	385,0000	3,63853407
3	0	387,5000	3,6384387
3	0	390,0000	3,6381526
3	0	392,5000	3,63819075
3	0	395,0000	3,63798094
3	0	397,5000	3,63792372
3	0	400,0000	3,63769484
3	0	402,5000	3,63784742
3	0	405,0000	3,63771391
3	0	407,5000	3,63752317
3	0	410,0000	3,63746595
3	0	412,5000	3,63731337
3	0	415,0000	3,63735151
3	0	417,5000	3,63704634
3	0	420,0000	3,63702726
3	0	422,5000	3,63698912
3	0	425,0000	3,63677931
3	0	427,5000	3,63676023
3	0	430,0000	3,63666487
3	0	432,5000	3,63658857
3	0	435,0000	3,63635969
3	0	437,5000	3,63639784
3	0	440,0000	3,6362071
3	0	442,5000	3,63618803
3	0	445,0000	3,63601637
3	0	447,5000	3,635921
3	0	450,0000	3,63571119
3	0	452,5000	3,63584471
3	0	455,0000	3,63573027
3	0	457,5000	3,63548231
3	0	460,0000	3,63544416
3	0	462,5000	3,63529158
3	0	465,0000	3,63517714
3	0	467,5000	3,63504362
3	0	470,0000	3,63508177
3	0	472,5000	3,63491011
3	0	475,0000	3,63489103
3	0	477,5000	3,63468122
3	0	480,0000	3,63458586
3	0	482,5000	3,63443327
3	0	485,0000	3,63435698
3	0	487,5000	3,63424253
3	0	490,0000	3,63429976
3	0	492,5000	3,63412809
3	0	495,0000	3,63388014
3	0	497,5000	3,63384199
3	0	500,0000	3,6337657
3	0	502,5000	3,6336894
3	0	505,0000	3,63353682
3	0	507,5000	3,63332701
3	0	510,0000	3,63338423
3	0	512,5000	3,63325071
3	0	515,0000	3,63307905
3	0	517,5000	3,63296461
3	0	520,0000	3,63288832
3	0	522,5000	3,63277388
3	0	525,0000	3,63269758
3	0	527,5000	3,63264036
3	0	530,0000	3,63244963
3	0	532,5000	3,63244963
3	0	535,0000	3,63225889
3	0	537,5000	3,6321826
3	0	540,0000	3,63214445
3	0	542,5000	3,6318965
3	0	545,0000	3,63176298
3	0	547,5000	3,63180113
3	0	550,0000	3,6318202
3	0	552,5000	3,63170576
3	0	555,0000	3,63147688
3	0	557,5000	3,63134336
3	0	560,0000	3,63130522
3	0	562,5000	3,63126707
3	0	565,0000	3,63109541
3	0	567,5000	3,63094282
3	0	570,0000	3,63090467
3	0	572,5000	3,63079023
3	0	575,0000	3,63069487
3	0	577,5000	3,63054228
3	0	580,0000	3,63038969
3	0	582,5000	3,63042784
3	0	585,0000	3,6302371
3	0	587,5000	3,63008451
3	0	590,0000	3,63006544
3	0	592,5000	3,62987471
3	0	595,0000	3,62968397
3	0	597,5000	3,6295886
3	0	600,0000	3,62955046