File: Experimentelles/Ausgewaehlte_Daten/LTO/CV/LTO_Korrosion_08_CV_C02.mpt
EC-Lab ASCII FILE
Nb header lines : 61

Cyclic Voltammetry

Run on channel : 2 (SN 6986)
Grouped channel(s) : 2
User :
CE vs. WE compliance from -10 V to 10 V
Electrode connection : standard
Ewe ctrl range : min = 0,00 V, max = 5,00 V
Acquisition started on : 09.04.2015 14:14:19
Saved on :
	File : LTO_Korrosion_08_CV_C02.mpr
	Directory : C:\Gielisch\AlteZelle\150904_LTO_Korrosion\
	Host : 192.168.0.2
Device : VMP3 (SN 0324)
Address : 192.168.0.1
EC-Lab for windows v10.33 (software)
Internet server v10.33 (firmware)
Command interpretor v10.32 (firmware)
Electrode material :
Initial state :
Electrolyte :
Comments :
Electrode surface area : 0,001 cm²
Characteristic mass : 0,001 g
Equivalent Weight : 0,000 g/eq.
Density : 0,000 g/cm3
Ei (V)              0,000
vs.                 Eoc
dE/dt               10,000
dE/dt unit          mV/s
E1 (V)              4,000
vs.                 Ref
Step percent        50
N                   10
E range min (V)     0,000
E range max (V)     5,000
I Range             Auto
Bandwidth           5
E2 (V)              0,600
vs.                 Ref
nc cycles           0
Reverse Scan        1
Ef (V)              0,000
vs.                 Eoc

Modify on : 09.04.2015 14:32
E2 (V)              1,000

Number of loops : 7
Loop 0 from point number 0 to 5997
Loop 1 from point number 5998 to 11996
Loop 2 from point number 11997 to 17995
Loop 3 from point number 17996 to 23993
Loop 4 from point number 23994 to 29993
Loop 5 from point number 29994 to 35992
Loop 6 from point number 35993 to 41992

mode	ox/red	error	control changes	counter inc.	time/s	control/V	Ewe/V	<I>/mA	cycle number	(Q-Qo)/C	P/W
2	1	0	0	0	212471,0460	1,50220346	1,50329101	0,0066841905936598784	1	0	1,00482839E-005
2	1	0	0	0	212510,3291	1,89503348	1,89580452	5,7969009456811597	1	0,0980862156	0,0109897908
2	1	0	0	0	212549,5371	2,28711414	2,28778458	2,0747809904041005	1	0,364952445	0,00474665174
2	1	0	1	0	212588,7853	2,67959476	2,68031645	0,10106599915565762	1	0,382677078	0,00027088885
2	1	0	1	0	212627,9933	3,07167554	3,07233644	0,097694170540543629	1	0,386314631	0,000300149346
2	1	0	1	0	212667,2013	3,46375561	3,46460056	0,097253980261653222	1	0,390342712	0,000336946192
2	1	0	1	0	212706,4094	3,85583496	3,85641551	0,078532236028987738	1	0,393772393	0,000302852946
2	0	0	0	0	212745,6079	3,75221491	3,75286484	-0,024420901331015709	1	0,3945539	9,16483405E-005
2	0	0	0	0	212784,8159	3,36013412	3,36078262	-0,030965966534697075	1	0,39338544	0,000104069884
2	0	0	1	0	212824,0241	2,96805382	2,96860695	-0,031316247009844589	1	0,392142296	9,29656308E-005
2	0	0	1	0	212863,2321	2,57597327	2,5766046	-0,041133878097213914	1	0,390803844	0,000105985739
2	0	0	1	0	212902,4801	2,1834929	2,18414831	-0,1141345425750371	1	0,387953192	0,000249286764
2	0	0	0	0	212941,6883	1,79141223	1,79214156	-0,29654857661161082	1	0,380777538	0,000531457015
2	0	0	0	0	212980,9363	1,39893174	1,39949417	-3,0459698709073139	1	0,344534665	0,00426281709
2	0	0	0	0	213020,1443	1,00685132	1,00756347	-8,8452110941762995	1	0,0798842087	0,00891211163
2	1	0	0	1	213059,3531	1,38522899	1,38579106	0,050345162686857402	1	0,00107774849	6,9767877E-005
2	1	0	0	0	213098,6033	1,77740943	1,77813148	3,8629928418883494	2	0,0476123281	0,00686890911
2	1	0	0	0	213137,8113	2,16948986	2,17017341	7,4350965321063424	2	0,317461908	0,0161354486
2	1	0	0	0	213177,0594	2,56197023	2,56256294	0,12009036208123592	2	0,38044396	0,000307739101
2	1	0	1	0	213216,2676	2,95405078	2,95468521	0,0781631009842928	2	0,383734941	0,000230947364
2	1	0	1	0	213255,4756	3,34613132	3,34669638	0,085151558491849856	2	0,38705188	0,000284976413
2	1	0	1	0	213294,6836	3,73821139	3,73880863	0,074383661876884058	2	0,390175432	0,000278106279
2	0	0	0	0	213333,8322	3,87033916	3,87097406	-0,01956593799965321	2	0,391952783	7,57392409E-005
2	0	0	0	0	213373,0402	3,47825861	3,47892761	-0,032961650971426618	2	0,390807033	0,000114671195
2	0	0	0	0	213412,2483	3,08617926	3,08680201	-0,032796986057338138	2	0,38950628	0,000101237805
2	0	0	1	0	213451,4564	2,69409776	2,69472289	-0,034937866355499392	2	0,388193339	9,41478647E-005
2	0	0	1	0	213490,6644	2,30201721	2,30265379	-0,082361934361635085	2	0,386155665	0,000189651022
2	0	0	0	0	213529,9126	1,9095366	1,91008222	-0,19716125188602262	2	0,381110132	0,000376594195
2	0	0	0	0	213569,1606	1,51705599	1,51759481	-1,0096861159911874	2	0,365337968	0,00153229444
2	0	0	0	0	213608,3686	1,12497544	1,12571716	-7,9166105257140634	2	0,197791696	0,0089118639
2	1	0	1	1	213647,4672	1,26600432	1,26679599	-0,46016476800044435	2	0,00408485951	0,000582934881
2	1	0	1	0	213686,8197	1,65918446	1,66003919	1,7389959817648874	3	0,0133526847	0,00288680149
2	1	0	0	0	213726,0278	2,05126572	2,05200171	7,8255193575665203	3	0,203627199	0,0160579793
2	1	0	0	0	213765,2758	2,44374609	2,44444942	0,22380508537645693	3	0,376089334	0,000547080184
2	1	0	0	0	213804,4840	2,8358264	2,83649588	0,070641657577885542	3	0,380186617	0,000200374765
2	1	0	1	0	213843,6921	3,22790718	3,22854733	0,082781181877685901	3	0,383256912	0,000267262978
2	1	0	1	0	213882,9001	3,61998725	3,62082958	0,07382946618384201	3	0,386348337	0,000267323921
2	0	0	0	0	213922,0387	3,98866367	3,98933697	0,00078101115172170278	3	0,389076591	3,11571671E-006
2	0	0	0	0	213961,2867	3,59618282	3,59682322	-0,032517258707364941	3	0,388144344	0,000116958829
2	0	0	1	0	214000,4949	3,20410204	3,20475411	-0,033146253812851411	3	0,386828661	0,000106225591
2	0	0	1	0	214039,7029	2,81202149	2,81266737	-0,033357110568667078	3	0,385520577	9,38224548E-005
2	0	0	1	0	214078,9109	2,41994143	2,42046547	-0,057266916674389158	3	0,383926004	0,000138612595
2	0	0	1	0	214118,1590	2,02746129	2,0281651	-0,1393123443770583	3	0,380117208	0,000282548426
2	0	0	0	0	214157,3671	1,63538015	1,63591754	-0,41062517146821696	3	0,37050432	0,000671748945
2	0	0	0	0	214196,6151	1,24289989	1,24337268	-5,2558664254568512	3	0,283585727	0,00653500063
2	1	0	1	1	214235,6637	1,14758015	1,14840627	-2,5577599654594998	3	0,025548907	0,00293734763
2	1	0	1	0	214274,9881	1,54026067	1,54079556	0,4356650025756297	4	0,00123398774	0,000671270711
2	1	0	0	0	214314,2363	1,93274128	1,93351853	5,7761245822464742	4	0,113624036	0,0111682443
2	1	0	0	0	214353,4443	2,32482171	2,32560563	1,8653942661152989	4	0,364594996	0,00433817133
2	1	0	0	0	214392,6923	2,71730256	2,71781707	0,067846215183467226	4	0,375818759	0,000184393604
2	1	0	1	0	214431,9006	3,10938263	3,10998416	0,07870779985872439	4	0,378621966	0,000244780007
2	1	0	1	0	214471,1086	3,50146341	3,50207472	0,073204649646801395	4	0,381691456	0,000256368163
2	1	0	1	0	214510,3166	3,89354396	3,89418411	0,067494317570149069	4	0,384462923	0,000262835296
2	0	0	0	0	214549,5452	3,7142067	3,71492338	-0,029420252889394682	4	0,38463369	0,000109293986
2	0	0	0	0	214588,7532	3,32212639	3,32266736	-0,033072823067885504	4	0,383333355	0,000109889988
2	0	0	1	0	214627,9614	2,93004632	2,93052316	-0,032881669105134125	4	0,382021338	9,63604907E-005
2	0	0	1	0	214667,1694	2,53796554	2,5386498	-0,042629503683807469	4	0,38062495	0,000108221378
2	0	0	1	0	214706,4174	2,14548492	2,14604712	-0,11061262780869475	4	0,377775818	0,000237379907
2	0	0	0	0	214745,6256	1,75340426	1,75401807	-0,27073205379700214	4	0,370524973	0,000474868924
2	0	0	0	0	214784,8736	1,36092401	1,36159325	-2,926134730930656	4	0,331975549	0,00398420542
2	1	0	1	1	214823,9222	1,02955592	1,03015876	-7,3702438153602829	4	0,0934152752	0,00759252114
2	1	0	1	1	214863,1702	1,42203653	1,42254829	-0,08283484066595031	4	0,00295379921	0,000117836564
2	1	0	1	0	214902,5327	1,81511819	1,81587756	3,7669370245184685	5	0,0530563891	0,00684029656
2	1	0	0	0	214941,7408	2,2071979	2,20784307	7,213555766476535	5	0,302672029	0,0159263983
2	1	0	0	0	214980,9888	2,59967828	2,60023284	0,080426685296481882	5	0,371901929	0,000209128106
2	1	0	0	0	215020,1968	2,99175906	2,99230599	0,071756577800476723	5	0,374567747	0,000214717642
2	1	0	1	0	215059,4050	3,38383889	3,38433933	0,074596092010054746	5	0,377573997	0,0002524585
2	1	0	1	0	215098,6131	3,77591991	3,77659082	0,067694519862049997	5	0,380353212	0,000255654508
2	0	0	1	0	215137,8015	3,83223176	3,83279729	-0,024410732707043414	5	0,3816185	9,35613934E-005
2	0	0	1	0	215177,0095	3,44015098	3,44087529	-0,033710664918611968	5	0,380385399	0,000115994197
2	0	0	0	0	215216,2177	3,04806995	3,04883718	-0,033149688965986022	5	0,379067868	0,000101068006
2	0	0	0	0	215255,4257	2,65598965	2,65657687	-0,035693081884851987	5	0,37773782	9,48214147E-005
2	0	0	0	0	215294,6337	2,26390934	2,26465511	-0,084175245913986394	5	0,375626922	0,000190627907
2	0	0	1	0	215333,8819	1,87142873	1,87206972	-0,2193149257175344	5	0,37039423	0,000410572829
2	0	0	1	0	215373,1299	1,47894812	1,47935545	-1,1361855043581261	5	0,352847964	0,00168082223
2	0	0	1	0	215412,3379	1,08686769	1,08753121	-7,2638561405517235	5	0,194180295	0,00789966993
2	1	0	0	1	215451,3865	1,30361223	1,30411851	-0,90549687047799309	5	0,0098598646	0,00118087523
2	1	0	1	0	215490,6451	1,69559264	1,69621861	1,9516446027490701	6	0,0173216332	0,00331041589
2	1	0	1	0	215529,8531	2,08767319	2,08835888	7,3389369536329523	6	0,200589523	0,0153263342
2	1	0	0	0	215569,1013	2,48015356	2,48074841	0,14095303295525141	6	0,367187828	0,000349669019
2	1	0	0	0	215608,3093	2,87223411	2,87272787	0,064608996026908288	6	0,370155662	0,000185604062
2	1	0	0	0	215647,5173	3,26431441	3,26500154	0,076132499966425459	6	0,373006105	0,000248572731
2	1	0	1	0	215686,7255	3,65639496	3,65706587	0,068486555712297446	6	0,375817299	0,000250459852
2	0	0	1	0	215725,9640	3,95125556	3,95189905	-0,012849045089549496	6	0,378108054	5,07781297E-005
2	0	0	1	0	215765,1720	3,55917549	3,55976367	-0,033711696828336192	6	0,377038181	0,000120005672
2	0	0	1	0	215804,3801	3,16709518	3,16754341	-0,033340296454168582	6	0,375710964	0,000105606836
2	0	0	0	0	215843,5882	2,7750144	2,77564359	-0,033724586255158726	6	0,374396175	9,36074284E-005
2	0	0	0	0	215882,7962	2,38293386	2,38363647	-0,060443436071553114	6	0,372749776	0,00014407518
2	0	0	1	0	215922,0444	1,99045289	1,99097991	-0,14624763993615379	6	0,36883679	0,000291176111
2	0	0	1	0	215961,2524	1,5983727	1,59904456	-0,48779903931749581	6	0,35850808	0,0007800124
2	0	0	1	0	216000,4904	1,2059921	1,20677996	-5,0288057084436986	6	0,269875795	0,00606866181
2	1	0	0	1	216039,5490	1,18458772	1,18533254	-2,8504972761427824	6	0,034869682	0,00337878708
2	1	0	0	0	216078,8256	1,57666814	1,57726777	0,58675281289551155	7	0,00245636981	0,000925466302
2	1	0	0	0	216118,0736	1,96914876	1,96987092	5,5667550762493933	7	0,117158271	0,0109657887
2	1	0	1	0	216157,2818	2,3612299	2,36193585	1,2084741789587739	7	0,358787507	0,00285433838
2	1	0	1	0	216196,5298	2,75370979	2,75435162	0,06055401448436393	7	0,365053415	0,000166787053
2	1	0	1	0	216235,7378	3,1457901	3,14649129	0,074544774256301466	7	0,367691219	0,000234554478
2	1	0	0	0	216274,9460	3,5378716	3,53852153	0,06782534610449431	7	0,370540917	0,000240001449
2	1	0	0	0	216314,1540	3,92995119	3,9307363	0,065214492440982323	7	0,37315613	0,00025634098
2	0	0	0	0	216353,3425	3,67819953	3,67874932	-0,031154311128409274	7	0,372922421	0,000114608898
2	0	0	0	0	216392,5505	3,28611875	3,28676057	-0,033192938853365715	7	0,371603429	0,000109097244
2	0	0	1	0	216431,7587	2,89403915	2,89471841	-0,033129163487400333	7	0,370289147	9,58996025E-005
2	0	0	1	0	216470,9667	2,50195813	2,50266266	-0,043929121323378675	7	0,368871719	0,00010993977
2	0	0	1	0	216510,2147	2,10947776	2,11007309	-0,1126427639758697	7	0,365921259	0,000237684464
2	0	0	0	0	216549,4229	1,71739697	1,71810627	-0,27221875472201517	7	0,358389586	0,000467700738
2	0	0	0	0	216588,6709	1,32491648	1,32552123	-2,9901286758206778	7	0,315676808	0,00396347884
2	1	0	0	1	216627,7193	1,0655632	1,06618178	-5,8971832620877082	7	0,0907338113	0,00628746953
2	1	0	1	1	216666,9675	1,45804381	1,45851338	-0,15190472065781546	7	0,00536442688	0,000221555063
2	1	0	0	1	216671,7035	1,50540411	1,50625515	0,097622544504702093	7	0,0052344813	0,000147044455