File: Experimentelles/Ausgewaehlte_Daten/LTO/CV/LTO_Korrosion_02_CV_C02.mpt
EC-Lab ASCII FILE
Nb header lines : 61

Cyclic Voltammetry

Run on channel : 2 (SN 6986)
Grouped channel(s) : 2
User :
CE vs. WE compliance from -10 V to 10 V
Electrode connection : standard
Ewe ctrl range : min = 0,00 V, max = 5,00 V
Acquisition started on : 09.04.2015 14:14:19
Saved on :
	File : LTO_Korrosion_02_CV_C02.mpr
	Directory : C:\Gielisch\AlteZelle\150904_LTO_Korrosion\
	Host : 192.168.0.2
Device : VMP3 (SN 0324)
Address : 192.168.0.1
EC-Lab for windows v10.33 (software)
Internet server v10.33 (firmware)
Command interpretor v10.32 (firmware)
Electrode material :
Initial state :
Electrolyte :
Comments :
Electrode surface area : 0,001 cm²
Characteristic mass : 0,001 g
Equivalent Weight : 0,000 g/eq.
Density : 0,000 g/cm3
Ei (V)              0,000
vs.                 Eoc
dE/dt               10,000
dE/dt unit          mV/s
E1 (V)              4,000
vs.                 Ref
Step percent        50
N                   10
E range min (V)     0,000
E range max (V)     5,000
I Range             Auto
Bandwidth           5
E2 (V)              0,600
vs.                 Ref
nc cycles           0
Reverse Scan        1
Ef (V)              0,000
vs.                 Eoc

Modify on : 09.04.2015 14:31
E2 (V)              1,000

Number of loops : 7
Loop 0 from point number 0 to 6797
Loop 1 from point number 6798 to 12795
Loop 2 from point number 12796 to 18793
Loop 3 from point number 18794 to 24791
Loop 4 from point number 24792 to 30789
Loop 5 from point number 30790 to 36788
Loop 6 from point number 36789 to 42787

mode	ox/red	error	control changes	counter inc.	time/s	control/V	Ewe/V	<I>/mA	cycle number	(Q-Qo)/C	P/W
2	1	1	1	0	0,0508	3,143641	3,14429379	0,00012875051470473408	1	0	4,0482945E-007
2	1	0	0	0	39,8540	3,54167199	3,54218292	0,039478604220440474	1	0,00131798035	0,000139840442
2	1	0	1	0	79,6622	3,93975353	3,94035792	0,067209860024205043	1	0,00334387133	0,000264830916
2	0	0	0	0	119,4308	3,66259623	3,66311812	-0,032742329704989139	1	0,00293609151	0,000119939024
2	0	0	1	0	159,2390	3,26451468	3,26489401	-0,034884195667001683	1	0,00161305466	0,000113893198
2	0	0	0	0	199,0472	2,86643267	2,86692381	-0,051445575896650778	1	-6,10632342E-005	0,000147490544
2	0	0	1	0	238,8554	2,46835113	2,46885133	-0,073669046292909491	1	-0,00251525827	0,000181877927
2	0	0	0	0	278,7036	2,06986952	2,07045364	-0,12970648954312059	1	-0,00639014551	0,000268551288
2	0	0	1	0	318,5118	1,67178762	1,6724031	-0,3441376415667712	1	-0,0152544975	0,000575536862
2	0	0	0	0	358,3500	1,27340591	1,27386296	-1,767334764202431	1	-0,0470662005	0,0022513424
2	0	0	0	0	398,1581	0,875324488	0,875777364	-9,643088092867401	1	-0,258262366	0,00844519865
2	1	0	0	1	437,8868	0,721992791	0,722548068	-1,8258014343402992	1	-0,50167948	0,00131922925
2	1	0	1	1	477,8450	1,12157476	1,12202263	1,517241369105048	1	-0,491657585	0,0017023792
2	1	0	0	1	517,6532	1,51965654	1,5202024	0,75187068542948582	1	-0,437875897	0,00114299566
2	1	0	1	1	557,4614	1,9177382	1,91823053	6,4503429763846899	1	-0,329756349	0,0123732444
2	1	0	0	1	597,3496	2,31662011	2,31709981	0,55354617729231046	1	-0,0502502732	0,00128262176
2	1	0	1	1	637,1978	2,71510172	2,71555114	0,1266394889810023	1	-0,0418572612	0,000343896012
2	1	0	0	1	677,0060	3,11318374	3,11369538	0,10481682955942762	1	-0,0373504609	0,000326367677
2	1	0	1	0	716,7890	3,51046538	3,51083016	0,11176320582766186	2	0,00395793375	0,000392381626
2	1	0	0	0	756,5972	3,90854692	3,90867162	0,13347662949106747	2	0,00880893134	0,000521716313
2	0	0	0	0	796,4260	3,6932025	3,69341516	-0,026005223876348237	2	0,00995492097	9,60480902E-005
2	0	0	1	0	836,2342	3,29512095	3,2952714	-0,034522366520293222	2	0,0086887693	0,000113760565
2	0	0	0	0	876,0424	2,89703941	2,89737654	-0,041669852208104653	2	0,00718449475	0,000120733253
2	0	0	1	0	915,8506	2,4989574	2,49922824	-0,051382464529187821	2	0,00532516139	0,000128416505
2	0	0	0	0	955,6588	2,10087562	2,10122204	-0,091054681015925619	2	0,00276082149	0,000191326108
2	0	0	1	0	995,5070	1,70239389	1,70264208	-0,32399478130456403	2	-0,00466384878	0,000551647157
2	0	0	0	0	1035,3552	1,30391216	1,30424881	-5,8073848557693069	2	-0,0875130817	0,00757427467
2	1	0	1	1	1075,0038	1,09256887	1,09279764	-2,750942920093184	2	-0,366196305	0,00300622382
2	1	0	0	1	1115,0120	1,49265099	1,49296653	0,27532934425053802	2	-0,386054665	0,000411057496
2	1	0	1	1	1154,8502	1,8910327	1,89126182	5,9717998581904077	2	-0,293707937	0,0112942373
2	1	0	0	1	1194,7684	2,29021454	2,29075861	0,45777473315872582	2	-0,00965887774	0,00104865141
2	1	0	1	1	1234,5766	2,68829632	2,68860912	0,081097751114241395	2	-0,00372426142	0,00021804015
2	1	0	0	1	1274,3848	3,0863781	3,08666396	0,079653645434451418	2	-0,000510073674	0,000245864037
2	1	0	0	0	1314,0957	3,48295903	3,4832716	0,081578685079090163	3	0,00272880611	0,00028416072
2	1	0	1	0	1353,9038	3,88104057	3,88115358	0,099411160065365018	3	0,00627960265	0,000385829975
2	0	0	1	0	1393,6826	3,72120833	3,72142243	-0,028484299597847776	3	0,00723864743	0,00010600211
2	0	0	0	0	1433,4908	3,32312655	3,32346106	-0,034440807640311014	3	0,00592174521	0,00011446268
2	0	0	1	0	1473,2990	2,92504501	2,92535734	-0,039079415866311808	3	0,00448001176	0,000114321258
2	0	0	0	0	1513,1072	2,52696347	2,5272181	-0,048396328209761587	3	0,0027271572	0,000122308076
2	0	0	1	0	1552,9154	2,12888145	2,12920713	-0,081187451085834688	3	0,000378290832	0,000172864893
2	0	0	0	0	1592,7636	1,73039985	1,73056924	-0,27621642465668694	3	-0,00618894398	0,000478011643
2	0	0	1	0	1632,6118	1,331918	1,33195806	-4,9312325213794138	3	-0,0713593587	0,00656819483
2	1	0	0	1	1672,2604	1,06456304	1,06490135	-4,2615653270924557	3	-0,354435027	0,00453814678
2	1	0	1	1	1712,2686	1,46464527	1,46509707	0,1925741350795671	3	-0,387103111	0,000282139808
2	1	0	0	1	1752,1068	1,86302686	1,86339664	4,9281612899568333	3	-0,313832611	0,00918311905
2	1	0	1	1	1791,9950	2,26190901	2,26200795	1,2904610653166462	3	-0,0141605763	0,00291903317
2	1	0	0	1	1831,8432	2,66039062	2,6605792	0,078728174445805926	3	-0,00535396114	0,000209462538
2	1	0	1	1	1871,6514	3,05847239	3,05859423	0,079589359772702234	3	-0,00221798173	0,000243431554
2	1	0	0	0	1911,4026	3,45545387	3,45560789	0,078032458485622016	4	0,00245313812	0,000269649579
2	1	0	0	0	1951,2107	3,85353565	3,85363603	0,08870122431747351	4	0,00572703173	0,000341822248
2	0	0	0	0	1991,0393	3,74821401	3,74830413	-0,028520728284665565	4	0,00682475092	0,000106904365
2	0	0	1	0	2030,8475	3,35013199	3,35039163	-0,03434644767980055	4	0,00550277205	0,00011507405
2	0	0	0	0	2070,6557	2,95205045	2,95223904	-0,03763487258995024	4	0,00409160601	0,00011110714
2	0	0	1	0	2110,4639	2,55396891	2,55425048	-0,046500580691456461	4	0,00240101828	0,000118774129
2	0	0	0	0	2150,2721	2,15588713	2,15603089	-0,07456492790434921	4	0,000179391805	0,000160764292
2	0	0	1	0	2190,1203	1,75740528	1,75782907	-0,2487301304246543	4	-0,00577734597	0,000437225041
2	0	0	0	0	2229,9685	1,35892344	1,3590399	-3,9430767286706893	4	-0,0551656149	0,00535879843
2	1	0	1	1	2269,6171	1,03755748	1,03769946	-6,3070728944407795	4	-0,32997337	0,00654484611
2	1	0	0	1	2309,6253	1,43763971	1,43790412	0,10372227226832419	4	-0,385750711	0,000149142681
2	1	0	1	1	2349,4735	1,83612132	1,83643067	4,1885944417229555	4	-0,326641977	0,00769206323
2	1	0	0	1	2389,3617	2,23500347	2,23528671	4,7549633472054182	4	-0,0236115549	0,0106287068
2	1	0	1	1	2429,2099	2,63348508	2,63371563	0,076903498533216653	4	-0,00511946296	0,000202541953
2	1	0	0	1	2469,0181	3,03156686	3,0318284	0,078096418986441818	4	-0,00207585678	0,00023677494
2	1	0	1	0	2508,7073	3,4273479	3,42751575	0,075671270739769984	5	0,00219633314	0,00025936446
2	1	0	0	0	2548,5155	3,82542992	3,82566428	0,082431311175848346	5	0,00530772796	0,000315354526
2	0	0	1	0	2588,3541	3,77621984	3,77630234	-0,027791318246508378	5	0,0065955855	0,00010494842
2	0	0	0	0	2628,1623	3,37813807	3,37831903	-0,034313901396537171	5	0,00527841086	0,000115923307
2	0	0	1	0	2667,9705	2,98005605	2,98023295	-0,036492486057492666	5	0,00388521887	0,00010875611
2	0	0	0	0	2707,7787	2,58197427	2,58214688	-0,045044453193743949	5	0,00224484922	0,000116311392
2	0	0	1	0	2747,5869	2,18389273	2,18425202	-0,069136636469651072	5	0,000127045423	0,000151011831
2	0	0	0	0	2787,4351	1,785411	1,78564525	-0,2314542569220064	5	-0,00528793596	0,000413295202
2	0	0	1	0	2827,2833	1,38692927	1,38729215	-3,1241018636911002	5	-0,0430279709	0,00433404185
2	1	0	0	1	2866,9319	1,00955188	1,00992787	-8,1777371267477504	5	-0,301300615	0,00825892482
2	1	0	1	1	2906,9001	1,40923381	1,40946496	0,014904075741974886	5	-0,384634346	2,10067719E-005
2	1	0	0	1	2946,7783	1,8080157	1,80821848	3,5377537083846419	5	-0,337741286	0,00639703171
2	1	0	1	1	2986,5865	2,20609736	2,20638037	8,0602064220993766	5	-0,0476919897	0,0177838821
2	1	0	0	1	3026,4347	2,60457921	2,60491586	0,07678887106616183	5	-0,00511318678	0,000200028546
2	1	0	1	1	3066,2429	3,00266123	3,00279737	0,076406949010022042	5	-0,00213998579	0,00022943459
2	1	0	0	0	3106,0141	3,39984274	3,40014005	0,074478030773914573	6	0,00196061423	0,000253235747
2	1	0	1	0	3145,8223	3,7979238	3,79801702	0,078201205107486963	6	0,00496492116	0,000297009508
2	0	0	1	0	3185,6111	3,80422521	3,80456829	-0,026798146983815498	6	0,00645253854	0,000101955382
2	0	0	1	0	3225,4192	3,4061439	3,40622449	-0,034613349052457107	6	0,00514666969	0,00011790084
2	0	0	0	0	3265,2274	3,00806117	3,00827074	-0,035502647178114131	6	0,00376409851	0,000106801577
2	0	0	1	0	3305,0355	2,60998034	2,61031866	-0,043726759208194022	6	0,00216628751	0,000114140777
2	0	0	0	0	3344,8437	2,2118988	2,21207237	-0,064447538970314522	6	0,000134970411	0,000142562625
2	0	0	1	0	3384,6919	1,81341672	1,81366587	-0,21738693849356138	6	-0,00478561083	0,000394267263
2	0	0	0	0	3424,5401	1,41493511	1,41516149	-2,4165654717772186	6	-0,0339544676	0,00341983046
2	0	0	1	0	3464,3483	1,01685321	1,01711547	-8,6208771842497574	6	-0,271075904	0,00876842719
2	1	0	0	1	3504,0369	1,38002789	1,38039815	-0,086543677736901299	6	-0,383343965	0,000119464734
2	1	0	1	1	3544,0351	1,78000998	1,78032243	2,9757574506931661	6	-0,346903741	0,00529780751
2	1	0	0	1	3583,8433	2,17809153	2,17834616	9,609946984935689	6	-0,0788095817	0,020933792
2	1	0	1	1	3623,6915	2,57657337	2,57686377	0,078198390202251827	6	-0,00504850317	0,000201506598
2	1	0	0	1	3663,4997	2,97465515	2,97486973	0,07461720450643328	6	-0,00213224743	0,000221976457
2	1	0	1	0	3703,2189	3,37123632	3,37132716	0,073561010287246822	7	0,00172187295	0,000247998221
2	1	0	0	0	3743,0271	3,76931834	3,76948023	0,074778386762504038	7	0,004648712	0,000281875662
2	0	0	0	0	3782,7759	3,83323145	3,83326125	-0,025282057101355373	7	0,00635031657	9,69127286E-005
2	0	0	1	0	3822,5841	3,43514943	3,4354465	-0,034619957152581658	7	0,00506168511	0,000118935008
2	0	0	1	0	3862,3922	3,03706837	3,03708911	-0,034936838669592461	7	0,00368507416	0,000106106294
2	0	0	0	0	3902,2003	2,63898683	2,6393683	-0,042697536965626502	7	0,0021257156	0,000112694528
2	0	0	1	0	3942,0085	2,24090457	2,24109936	-0,06039792163883895	7	0,000170589527	0,000135357739
2	0	0	0	0	3981,8567	1,8424226	1,84275043	-0,20077337793729955	7	-0,00428290432	0,000369975227
2	0	0	1	0	4021,7049	1,44394088	1,44413483	-1,7710082312976835	7	-0,0271198265	0,00255757477
2	0	0	0	0	4061,5131	1,04585922	1,04630673	-8,3109189029093069	7	-0,239812583	0,00869577006
2	1	0	0	1	4101,2019	1,35102201	1,35138047	-0,21136160643288448	7	-0,381726801	0,00028562994
2	1	0	1	1	4141,2001	1,75100422	1,7513448	2,4633137947983245	7	-0,354659021	0,00431411201
2	1	0	0	1	4181,0083	2,14908576	2,14932847	9,7654744949605709	7	-0,11321418	0,0209892131
2	1	0	1	1	4220,8565	2,54756784	2,54791331	0,083438910345581453	7	-0,00505620986	0,000212595114
2	1	0	0	1	4260,6647	2,94564939	2,94587493	0,072599375059965939	7	-0,00217626197	0,000213868683
2	1	0	1	1	4280,6943	3,14604139	3,14631605	0,078630954027175898	7	-0,000659882149	0,000247397838