File: Experimentelles/Rohdaten/Batteriemessungen/AlteZelle/Studenten_Batterietests/Sonstige/ZView-Export/LiCoO2 vs Li_05_GCPL_C01_loop0.txt
EC-Lab ASCII FILE
Nb header lines : 3
mode	ox/red	error	control changes	Ns changes	counter inc.	Ns	time/s	control/V/mA	Ewe/V	dq/mA.h	<I>/mA	P/W	(Q-Qo)/mA.h	x	Capacity/mA.h
1	0	0	0	1	0	1	14641,14	-0,100000001	3,53030181	0	0	0	0	0	0
1	0	0	0	0	0	1	15851,14	-0,100000001	1,44760013	-0,00027771719084307552	-0,09997818991396247	0,000144728445	-0,033602404681563891	0,0012537508975827435	0,033602404681563891
1	0	0	0	0	0	1	17061,14	-0,100000001	1,07530677	-0,00027771763620277245	-0,099978350243455309	0,000107507396	-0,067206218624923494	0,0025075543766178576	0,067206218624923494
1	0	0	0	0	0	1	18271,14	-0,100000001	1,09539461	-0,00027771767331659798	-0,099978363604432653	0,000109515764	-0,10080999961796534	0,0037613566262323136	0,10080999961796534
1	0	0	0	0	0	1	19481,14	-0,100000001	1,13169396	-0,00027771674780464835	-0,099978030420126758	0,000113144531	-0,13441376420926426	0,005015158263875689	0,13441376420926426
1	0	0	0	0	0	1	20691,14	-0,100000001	1,14295995	-0,00027771681943163274	-0,099978056205841446	0,000114270915	-0,16801753237162336	0,0062689600347601216	0,16801753237162336
1	0	0	0	0	0	1	21901,14	-0,100000001	1,14645433	-0,00027771706293481917	-0,099978143866989619	0,000114620379	-0,20162124511166256	0,0075227597377632819	0,20162124511166256
1	0	0	0	0	0	1	23111,14	-0,100000001	1,14693177	-0,00027771716100350022	-0,099978179171715226	0,000114668146	-0,23522500972486422	0,0087765613762238771	0,23522500972486422
1	0	0	0	0	0	1	24321,14	-0,100000001	1,14534688	-0,00027771652107147706	-0,099977948796184115	0,000114509428	-0,26882873988741546	0,010030361729284387	0,26882873988741546
1	0	0	0	0	0	1	25531,14	-0,100000001	1,14326549	-0,00027771520151239302	-0,099977473754908109	0,000114300798	-0,30243241138709101	0,01128415989355413	0,30243241138709101
1	0	0	0	0	0	1	26741,14	-0,100000001	1,14047766	-0,0002777165777422488	-0,099977969197662195	0,000114022638	-0,33603606855499501	0,012537957523086211	0,33603606855499501
1	0	0	0	0	0	1	27951,14	-0,100000001	1,13744152	-0,00027771596942717827	-0,09997775020423415	0,000113718845	-0,36963973484190266	0,013791755492860574	0,36963973484190266
1	0	0	0	0	0	1	29161,14	-0,100000001	1,13377535	-0,00027771565518445437	-0,09997763707685216	0,00011335218	-0,40324336239644493	0,015045552017478314	0,40324336239644493
1	0	0	0	0	0	1	30371,14	-0,100000001	1,13051009	-0,0002777167569357488	-0,099978033707322957	0,000113026173	-0,43684698630225779	0,01629934840595705	0,43684698630225779
1	0	0	0	0	0	1	31581,14	-0,100000001	1,12734032	-0,00027771695392040742	-0,099978104621800909	0,000112709349	-0,47045063157013907	0,017553145591483277	0,47045063157013907
1	0	0	0	0	0	1	32791,14	-0,100000001	1,12447608	-0,00027771553466717402	-0,099977592293959872	0,000112422407	-0,50405426778344621	0,018806942439171174	0,50405426778344621
1	0	0	0	0	0	1	34001,14	-0,100000001	1,12096262	-0,00027771606997276349	-0,099977785003971725	0,000112071357	-0,53765789547505126	0,020060738968902912	0,53765789547505126
1	0	0	0	0	0	1	35211,14	-0,100000001	1,11794567	-0,00027771537900550499	-0,09997753625575913	0,000111769456	-0,57126145136334586	0,021314532819556589	0,57126145136334586
1	0	0	0	0	0	1	36421,14	-0,100000001	1,11445129	-0,00027771620765080054	-0,099977834568064973	0,000111420428	-0,60486503101332544	0,022568327556790685	0,60486503101332544
1	0	0	0	0	0	1	37631,14	-0,100000001	1,11151063	-0,00027771587119292883	-0,099977713443231373	0,00011112629	-0,63846867720905126	0,023822124776936045	0,63846867720905126
1	0	0	0	0	0	1	38841,14	-0,100000001	1,10864651	-0,00027771590931092701	-0,099977727165710694	0,000110839959	-0,67207231601859046	0,025075921721492848	0,67207231601859046
1	0	0	0	0	0	1	40051,14	-0,100000001	1,10459828	-0,00027771534395052326	-0,099977523635965722	0,000110435001	-0,7056759097022281	0,02632971698234159	0,7056759097022281
1	0	0	0	0	0	1	41261,14	-0,100000001	1,10076022	-0,00027771532331365677	-0,099977516206693798	0,000110051275	-0,73927941012339482	0,027583508763442157	0,73927941012339482
1	0	0	0	0	0	1	42471,14	-0,100000001	1,09833515	-0,00027771517030646403	-0,099977461124104512	0,00010980876	-0,77288295221629427	0,028837302099371091	0,77288295221629427
1	0	0	0	0	0	1	43681,14	-0,100000001	1,09436345	-0,0002777141183279455	-0,099977082411838554	0,000109411267	-0,80648644388983296	0,030091093554085888	0,80648644388983296
1	0	0	0	0	0	1	44891,14	-0,100000001	1,09193838	-0,00027771468919184474	-0,099977287922841894	0,000109169036	-0,84008994181175053	0,031344885241936115	0,84008994181175053
1	0	0	0	0	0	1	46101,14	-0,100000001	1,08974254	-0,00027771470611790816	-0,099977294016224704	0,000108949513	-0,87369347150906995	0,032598678115369286	0,87369347150906995
1	0	0	0	0	0	1	47311,14	-0,100000001	1,08813858	-0,00027771570119717059	-0,099977652244758515	0,000108789543	-0,90729700375093888	0,033852471083743034	0,90729700375093888
1	0	0	0	0	0	1	48521,14	-0,100000001	1,08619082	-0,0002777151131104264	-0,099977440533531008	0,000108594577	-0,94090055566603866	0,035106264786151475	0,94090055566603866
1	0	0	0	0	0	1	49731,14	-0,100000001	1,08485425	-0,00027771660638228054	-0,099977978111397491	0,000108461536	-0,97450417381254106	0,036360060959742598	0,97450417381254106
1	1	0	1	0	0	2	50931,14	0,100000001	1,36100471	0,00027782498322758406	0,1000169937756341	0,000136123606	-0,99171943123886656	0,037002385360478586	0,008056913953204951
1	1	0	1	0	0	2	52141,14	0,100000001	1,6997484	0,00027782436152713168	0,10001676996347165	0,000170003346	-0,95810264983353984	0,035748098048002541	0,041673695358531744
1	1	0	1	0	0	2	53351,14	0,100000001	1,81928253	0,00027782357438819274	0,10001648659345416	0,000181958254	-0,92448590040063885	0,034493811928460685	0,075290444791432832
1	1	0	1	0	0	2	54561,14	0,100000001	1,89358079	0,00027782459840468234	0,10001685523938973	0,00018938999	-0,89086917823960525	0,033239526826468864	0,10890716695246685
1	1	0	1	0	0	2	55771,14	0,100000001	1,95141923	0,00027782420158220662	0,10001671238329875	0,000195174536	-0,85725243373271949	0,03198524089072327	0,14252391145935242
1	1	0	1	0	0	2	56981,14	0,100000001	2,00133348	0,0002778233445092208	0,10001640383702442	0,000200166178	-0,82363569854706893	0,030730955302765485	0,17614064664500333
1	1	0	1	0	0	2	58191,14	0,100000001	2,05754876	0,00027782465102689133	0,10001687418338493	0,000205789591	-0,79001895783818227	0,029476669508728333	0,20975738735388998
1	1	0	1	0	0	2	59401,14	0,100000001	2,16148233	0,0002778238243626224	0,10001657658424867	0,000216184068	-0,75640226295037376	0,028222385424337213	0,24337408224169891
1	1	0	1	0	0	2	60611,14	0,100000001	2,25563931	0,00027782468399529651	0,10001688605201078	0,000225602023	-0,72278560109025267	0,026968102572253523	0,27699074410182
1	1	0	1	0	0	2	61821,14	0,100000001	2,30249834	0,00027782472062028118	0,10001689923700523	0,000230288744	-0,68916887277212698	0,025713817240532326	0,31060747241994643
1	1	0	1	0	0	2	63031,14	0,100000001	2,34567189	0,00027782355901060832	0,10001648105752378	0,000234605846	-0,65555215820958874	0,024459532422050592	0,34422418698248429
1	1	0	1	0	0	2	64241,14	0,100000001	2,39419198	0,00027782398591935638	0,1000166347446728	0,000239459026	-0,62193547182069158	0,023205248654765277	0,37784087337138125
1	1	0	1	0	0	2	65451,14	0,100000001	2,44614935	0,00027782360022390883	0,10001649589431194	0,000244655297	-0,58831873142670886	0,021950962872477622	0,41145761376536339
1	1	0	1	0	0	2	66661,16	0,100000001	2,49507046	0,00027783124129763907	0,1000172703676232	0,000249550125	-0,5547013121423063	0,020696651759875619	0,44507503304976621
1	1	0	1	0	0	2	67871,19	0,100000001	2,53986716	0,00027783015295242272	0,10001687840342478	0,000254029583	-0,52108386658381254	0,019442339666951949	0,47869247860825946
1	1	0	1	0	0	2	69081,21	0,100000001	2,58179951	0,00027782943339770038	0,10001661917338326	0,000258222863	-0,48746647966157779	0,018188029761825936	0,51230986553049395
1	1	0	1	0	0	2	70291,23	0,100000001	2,61821342	0,00027782985071672336	0,1000167693960931	0,000261865236	-0,45384907232125485	0,016933719094873606	0,54592727287081645
1	1	0	1	0	0	2	71501,26	0,100000001	2,65399742	0,0002778295145912303	0,10001664839359835	0,00026544393	-0,42023172527370976	0,015679410677525882	0,57954461991836134
1	1	0	1	0	0	2	72711,28	0,100000001	2,7261188	0,00027782991450321344	0,10001679235848459	0,000272657664	-0,38661434570390285	0,014425101046728838	0,61316199948816883
1	1	0	1	0	0	2	73921,31	0,100000001	3,01156855	0,00027782937577325437	0,10001659859650974	0,000301206834	-0,35299695257845408	0,013170790910152571	0,64677939261361792
1	1	0	1	0	0	2	75131,33	0,100000001	3,26793671	0,0002778300941226383	0,10001685739394826	0,000326848764	-0,31937956677833312	0,011916481046894136	0,68039677841373888
1	1	0	1	0	0	2	76341,35	0,100000001	3,27419996	0,00027783060702267622	0,10001704203664181	0,000327475806	-0,28576208035775923	0,010662167429351315	0,71401426483431258
1	1	0	1	0	0	2	77551,38	0,100000001	3,294765	0,00027782981483638288	0,10001675685288317	0,0003295317	-0,25214465125466061	0,0094078559504005619	0,74763169393741107
1	1	0	1	0	0	2	78761,40	0,100000001	3,34637856	0,00027782992834680611	0,10001679770418475	0,000334694079	-0,21852721328730144	0,0081535441407123277	0,78124913190477056
1	1	0	1	0	0	2	79971,43	0,100000001	3,43904614	0,00027783130727294416	0,10001729390519101	0,000343964086	-0,18490969735466429	0,0068992294220347482	0,81486664783740774
1	1	0	1	0	0	2	81181,45	0,100000001	3,56092906	0,00027783046025575866	0,10001698882668195	0,00035615341	-0,15129214218150771	0,0056449132392406298	0,84848420301056499
1	1	0	1	0	0	2	82391,47	0,100000001	3,6559453	0,00027782959636466371	0,10001667783203467	0,000365655491	-0,11767466993099344	0,0043906001504017862	0,88210167526107942
1	1	0	1	0	0	2	83601,50	0,100000001	3,71428013	0,00027783061683757437	0,10001704519502147	0,000371491333	-0,084057212098193459	0,0031362875995072467	0,91571913309387942
1	1	0	1	0	0	2	84811,52	0,100000001	3,75187802	0,00027782823034955398	0,10001618610309421	0,000375248521	-0,050439786537490541	0,001881976252728039	0,94933655865458214
1	1	0	1	0	0	2	86021,55	0,100000001	3,77973747	0,00027782945405195158	0,10001662682751408	0,000378036581	-0,016822426335601923	0,0006276673445740695	0,98295391885647117
1	1	0	1	0	0	2	86641,14	0,100000001	3,79190111	0,00026610527083981366	0,10001662142829163	0,00037925315	0,00039126879591726624	-1,4598764842164294E-005	1,0001676139879904