File: Experimentelles/Rohdaten/Batteriemessungen/AlteZelle/Studenten_Batterietests/Sonstige/ZView-Export/LiCoO2 vs Li_01_OCV_C01.txt
EC-Lab ASCII FILE
Nb header lines : 48

Open Circuit Voltage

Run on channel : 1 (SN 6985)
Grouped channel(s) : 1
User :
CE vs. WE compliance from -10 V to 10 V
Electrode connection : standard
Ewe ctrl range : min = 0,00 V, max = 5,00 V
Acquisition started on : 01.22.2015 12:12:33
Saved on :
	File : LiCoO2 vs Li_01_OCV_C01.mpr
	Directory : C:\Hupfer\Studenten Batterietests\
	Host : 192.168.0.2
Device : VMP3 (SN 0324)
Address : 192.168.0.1
EC-Lab for windows v10.33 (software)
Internet server v10.33 (firmware)
Command interpretor v10.32 (firmware)
Electrode material : LATP vs Li
Initial state : charged
Electrolyte : DME:Diox 1:2, 1M LiTFSi
Comments : LATP als Elektrode, normaler Seperator und Elektrolyt, Goldschicht teilweise vorhanden, elektrolytschonend, Probe2
Mass of active material : 0,001 mg
 at x = 0,000
Molecular weight of active material (at x = 0) : 0,001 g/mol
Atomic weight of intercalated ion : 0,001 g/mol
Acquisition started at : xo = 0,000
Number of e- transfered per intercalated ion : 1
for DX = 1, DQ = 26,801 mA.h
Battery capacity : 0,000 A.h
Reference electrode : Li+/Li (-3,020 V)
Electrode surface area : 0,001 cm²
Characteristic mass : 0,001 g
Create one data file per loop
tR (h:m:s)          1:00:0,0000
dER/dt (mV/h)       0,0
dER (mV)            0,00
dtR (s)             5,0000
E range min (V)     0,000
E range max (V)     5,000

Number of loops : 1
Loop 0 from point number 0 to 720

mode	error	time/s	Ewe/V
3	1	0,0000	3,12883139
3	0	15,0000	3,12877417
3	0	30,0000	3,12862134
3	0	45,0000	3,12846851
3	0	60,0000	3,12831569
3	0	75,0000	3,128335
3	0	90,0000	3,12810564
3	0	105,0000	3,12789559
3	0	120,0000	3,12789559
3	0	135,0000	3,12783837
3	0	150,0000	3,1276474
3	0	165,0000	3,12753296
3	0	180,0000	3,12751389
3	0	195,0000	3,12734199
3	0	210,0000	3,12717009
3	0	225,0000	3,12707472
3	0	240,0000	3,12694097
3	0	255,0000	3,12678814
3	0	270,0000	3,12696004
3	0	285,0000	3,12661624
3	0	300,0000	3,12644458
3	0	315,0000	3,12638712
3	0	330,0000	3,12629175
3	0	345,0000	3,12611985
3	0	360,0000	3,12592888
3	0	375,0000	3,12583351
3	0	390,0000	3,12579536
3	0	405,0000	3,12562346
3	0	420,0000	3,12550879
3	0	435,0000	3,12531781
3	0	450,0000	3,12526059
3	0	465,0000	3,12522244
3	0	480,0000	3,12506962
3	0	495,0000	3,12482142
3	0	510,0000	3,1248405
3	0	525,0000	3,1247642
3	0	540,0000	3,12457323
3	0	555,0000	3,12451601
3	0	570,0000	3,12428665
3	0	585,0000	3,12428665
3	0	600,0000	3,12403846
3	0	615,0000	3,12400031
3	0	630,0000	3,12386656
3	0	645,0000	3,12363744
3	0	660,0000	3,1236949
3	0	675,0000	3,12361836
3	0	690,0000	3,12342739
3	0	705,0000	3,1232748
3	0	720,0000	3,1231792
3	0	735,0000	3,1230073
3	0	750,0000	3,12289286
3	0	765,0000	3,12287378
3	0	780,0000	3,12274003
3	0	795,0000	3,1225872
3	0	810,0000	3,12249184
3	0	825,0000	3,12237716
3	0	840,0000	3,1222055
3	0	855,0000	3,12207174
3	0	870,0000	3,1220336
3	0	885,0000	3,12199545
3	0	900,0000	3,12188077
3	0	915,0000	3,12176633
3	0	930,0000	3,12153721
3	0	945,0000	3,12134624
3	0	960,0000	3,12130785
3	0	975,0000	3,12132716
3	0	990,0000	3,12119341
3	0	1005,0000	3,12096429
3	0	1020,0000	3,12092614
3	0	1035,0000	3,12073517
3	0	1050,0000	3,12063956
3	0	1065,0000	3,12062049
3	0	1080,0000	3,12056327
3	0	1095,0000	3,12035322
3	0	1110,0000	3,1201241
3	0	1125,0000	3,12000942
3	0	1140,0000	3,11987591
3	0	1155,0000	3,12000942
3	0	1170,0000	3,11974216
3	0	1185,0000	3,11955118
3	0	1200,0000	3,11953211
3	0	1215,0000	3,11941767
3	0	1230,0000	3,11922669
3	0	1245,0000	3,11922669
3	0	1260,0000	3,11901665
3	0	1275,0000	3,11892104
3	0	1290,0000	3,11876822
3	0	1305,0000	3,11874914
3	0	1320,0000	3,11865377
3	0	1335,0000	3,11834836
3	0	1350,0000	3,11842465
3	0	1365,0000	3,11827183
3	0	1380,0000	3,11817646
3	0	1395,0000	3,11796641
3	0	1410,0000	3,11787081
3	0	1425,0000	3,11773729
3	0	1440,0000	3,11769891
3	0	1455,0000	3,11750817
3	0	1470,0000	3,11746979
3	0	1485,0000	3,11735535
3	0	1500,0000	3,11739349
3	0	1515,0000	3,11701155
3	0	1530,0000	3,11701155
3	0	1545,0000	3,11701155
3	0	1560,0000	3,11683965
3	0	1575,0000	3,11666799
3	0	1590,0000	3,11659145
3	0	1605,0000	3,11649609
3	0	1620,0000	3,11636233
3	0	1635,0000	3,11624789
3	0	1650,0000	3,11615229
3	0	1665,0000	3,11605692
3	0	1680,0000	3,11594224
3	0	1695,0000	3,11575127
3	0	1710,0000	3,11567497
3	0	1725,0000	3,11556029
3	0	1740,0000	3,11544585
3	0	1755,0000	3,115484
3	0	1770,0000	3,11525488
3	0	1785,0000	3,11508298
3	0	1800,0000	3,11504483
3	0	1815,0000	3,11493015
3	0	1830,0000	3,11485386
3	0	1845,0000	3,11472011
3	0	1860,0000	3,11456752
3	0	1875,0000	3,11452937
3	0	1890,0000	3,11443377
3	0	1905,0000	3,11426187
3	0	1920,0000	3,11422372
3	0	1935,0000	3,11408997
3	0	1950,0000	3,11387992
3	0	1965,0000	3,11386085
3	0	1979,9999	3,11378455
3	0	1994,9999	3,1136508
3	0	2009,9999	3,11359358
3	0	2024,9999	3,11347914
3	0	2039,9999	3,11326909
3	0	2054,9999	3,11325002
3	0	2069,9999	3,11315441
3	0	2084,9999	3,11298251
3	0	2099,9999	3,11292529
3	0	2114,9999	3,11282992
3	0	2129,9999	3,1126771
3	0	2144,9999	3,11263895
3	0	2159,9999	3,11246705
3	0	2174,9999	3,11239052
3	0	2189,9999	3,11237144
3	0	2204,9999	3,11206603
3	0	2219,9999	3,11212325
3	0	2234,9999	3,11200881
3	0	2249,9999	3,11195135
3	0	2264,9999	3,11168408
3	0	2279,9999	3,11156964
3	0	2294,9999	3,11143589
3	0	2309,9999	3,1113596
3	0	2324,9999	3,11134052
3	0	2339,9999	3,11120677
3	0	2354,9999	3,11114955
3	0	2369,9999	3,11107302
3	0	2384,9999	3,11107302
3	0	2399,9999	3,11080575
3	0	2414,9999	3,11071038
3	0	2429,9999	3,11061478
3	0	2444,9999	3,11055756
3	0	2459,9999	3,1104238
3	0	2474,9999	3,11023283
3	0	2489,9999	3,11023283
3	0	2504,9999	3,11008024
3	0	2519,9999	3,10994649
3	0	2534,9999	3,10992742
3	0	2549,9999	3,10983181
3	0	2564,9999	3,10979366
3	0	2579,9999	3,10958362
3	0	2594,9999	3,10966015
3	0	2609,9999	3,10941172
3	0	2624,9999	3,10933542
3	0	2639,9999	3,1091826
3	0	2654,9999	3,10901093
3	0	2669,9999	3,10899162
3	0	2684,9999	3,10885811
3	0	2699,9999	3,10885811
3	0	2714,9999	3,10866714
3	0	2729,9999	3,10860991
3	0	2744,9999	3,10838079
3	0	2759,9999	3,10838079
3	0	2774,9999	3,10826612
3	0	2789,9999	3,10811329
3	0	2804,9999	3,10803699
3	0	2819,9999	3,10788417
3	0	2834,9999	3,10790324
3	0	2849,9999	3,10759783
3	0	2864,9999	3,10765505
3	0	2879,9999	3,10750222
3	0	2894,9999	3,10738778
3	0	2909,9999	3,10740685
3	0	2924,9999	3,10723495
3	0	2939,9999	3,10723495
3	0	2954,9999	3,10706306
3	0	2969,9999	3,10689139
3	0	2984,9999	3,10687232
3	0	2999,9999	3,10675764
3	0	3014,9999	3,10656667
3	0	3029,9999	3,10654759
3	0	3044,9999	3,10645223
3	0	3059,9999	3,10622287
3	0	3074,9999	3,10631847
3	0	3089,9999	3,10620379
3	0	3104,9999	3,10605121
3	0	3119,9999	3,10584116
3	0	3134,9999	3,10587931
3	0	3149,9999	3,10584116
3	0	3164,9999	3,10559297
3	0	3179,9999	3,10555458
3	0	3194,9999	3,10544014
3	0	3209,9999	3,10540199
3	0	3224,9999	3,10523009
3	0	3239,9999	3,10524917
3	0	3254,9999	3,10515356
3	0	3269,9999	3,10494351
3	0	3284,9999	3,10484815
3	0	3299,9999	3,10479093
3	0	3314,9999	3,10479093
3	0	3329,9999	3,10465717
3	0	3344,9999	3,10454273
3	0	3359,9999	3,10431337
3	0	3374,9999	3,10425615
3	0	3389,9999	3,10417986
3	0	3404,9999	3,10414171
3	0	3419,9999	3,10400796
3	0	3434,9999	3,10393167
3	0	3449,9999	3,10379791
3	0	3464,9999	3,10368347
3	0	3479,9999	3,10360694
3	0	3494,9999	3,10356879
3	0	3509,9999	3,1034925
3	0	3524,9999	3,10333967
3	0	3539,9999	3,10333967
3	0	3554,9999	3,10326338
3	0	3569,9999	3,1030724
3	0	3584,9999	3,10316777
3	0	3599,9999	3,10291958