File: Experimentelles/Rohdaten/Batteriemessungen/AlteZelle/Studenten_Batterietests/Sonstige/ZView-Export/LiCoO2 vs Li_05_GCPL_C01_loop8.txt
EC-Lab ASCII FILE
Nb header lines : 3
mode	ox/red	error	control changes	Ns changes	counter inc.	Ns	time/s	control/V/mA	Ewe/V	dq/mA.h	<I>/mA	P/W	(Q-Qo)/mA.h	x	Capacity/mA.h
1	0	0	1	1	0	1	267455,04	-0,100000001	4,1961031	0	0	0	0	0	0
1	0	0	1	0	0	1	267835,05	-0,100000001	3,81806207	-0,00027772114428877827	-0,09997768688280064	0,000381721009	-0,010552027761005182	0,00039371034311531757	0,010552027761005182
1	0	0	1	0	0	1	268215,05	-0,100000001	3,77315068	-0,00027772115025462371	-0,099977689030463642	0,000377230899	-0,021105410154191056	0,00078747122937861914	0,021105410154191056
1	0	0	1	0	0	1	268595,06	-0,100000001	3,73753881	-0,00027772138581797478	-0,099977773829309427	0,000373670802	-0,031658816850085126	0,0011812330224086387	0,031658816850085126
1	0	0	1	0	0	1	268975,07	-0,100000001	3,7054975	-0,00027772098967764112	-0,099977631219207488	0,000370466849	-0,042212235454841536	0,0015749952597743238	0,042212235454841536
1	0	0	1	0	0	1	269355,07	-0,100000001	3,67517471	-0,00027772086887516909	-0,099977587735810394	0,000367435103	-0,052765635466739437	0,0019687568034154598	0,052765635466739437
1	0	0	1	0	0	1	269735,08	-0,100000001	3,64510036	-0,00027772116698448854	-0,099977695053099021	0,000364428735	-0,063319029283592998	0,0023625181159111619	0,063319029283592998
1	0	0	1	0	0	1	270115,09	-0,100000001	3,61479664	-0,00027771988260621827	-0,099977232681169088	0,000361397368	-0,07387241196704855	0,0027562790130048154	0,07387241196704855
1	0	0	1	0	0	1	270495,10	-0,100000001	3,58336639	-0,00027772016464877462	-0,099977334219189824	0,000358255405	-0,084425781128326976	0,0031500394055678598	0,084425781128326976
1	0	0	1	0	0	1	270875,10	-0,100000001	3,5507524	-0,00027772077807659904	-0,09997755504895456	0,000354995544	-0,094979151820288282	0,0035437998552427398	0,094979151820288282
1	0	0	1	0	0	1	271255,11	-0,100000001	3,51645803	-0,00027772145280448925	-0,099977797946318054	0,000351567724	-0,1055325493063835	0,0039375613046427821	0,1055325493063835
1	0	0	1	0	0	1	271635,12	-0,100000001	3,47985291	-0,00027771996686069501	-0,099977263012196698	0,000347906171	-0,11608592984105475	0,0043313221215624038	0,11608592984105475
1	0	0	1	0	0	1	272015,13	-0,100000001	3,44034576	-0,00027772133330711056	-0,099977754925180365	0,000343958032	-0,12663931775943438	0,0047250832139781126	0,12663931775943438
1	0	0	1	0	0	1	272395,13	-0,100000001	3,39696193	-0,00027771976320073011	-0,09997718970067648	0,000339618709	-0,13719269417969834	0,0051188438773836672	0,13719269417969834
1	0	0	1	0	0	1	272775,14	-0,100000001	3,34924388	-0,00027772024381947184	-0,099977362720092045	0,000334848562	-0,14774607335841776	0,005512604643710903	0,14774607335841776
1	0	0	1	0	0	1	273155,15	-0,100000001	3,2967329	-0,00027772129495773046	-0,099977741122579034	0,000329599919	-0,1582994519218417	0,0059063653870806374	0,1582994519218417
1	0	0	1	0	0	1	273535,16	-0,100000001	3,23891354	-0,00027772127919933859	-0,099977735446175578	0,000323819229	-0,16885285446543702	0,0063001270251828083	0,16885285446543702
1	0	0	1	0	0	1	273915,16	-0,100000001	3,17404819	-0,00027772053635492918	-0,099977468026173453	0,000317333295	-0,17940624544355357	0,006693888231761417	0,17940624544355357
1	0	0	1	0	0	1	274295,17	-0,100000001	3,10095286	-0,0002777204474318359	-0,099977436019131738	0,000310025323	-0,1899596173644865	0,00708764872729088	0,1899596173644865
1	0	0	1	0	0	1	274675,18	-0,100000001	3,01863456	-0,00027772025497009357	-0,099977366734238566	0,000301795139	-0,20051298195174704	0,007481408949191168	0,20051298195174704
1	0	0	1	0	0	1	275055,18	-0,100000001	2,92484045	-0,00027772085097100998	-0,099977581288109478	0,000292418466	-0,21106636066378698	0,0078751696981059648	0,21106636066378698
1	0	0	1	0	0	1	275435,19	-0,100000001	2,81936026	-0,00027772033179385792	-0,099977394385605747	0,000281872286	-0,221619753390984	0,0082689309699451162	0,221619753390984
1	0	0	1	0	0	1	275815,20	-0,100000001	2,70635653	-0,00027772031276134982	-0,099977387538690227	0,000270574441	-0,23217314082745667	0,0086626920443802278	0,23217314082745667
1	0	0	1	0	0	1	276195,21	-0,100000001	2,58989668	-0,00027771988961141968	-0,099977235207648512	0,000258930697	-0,24272651131365235	0,0090564524863777178	0,24272651131365235
1	0	0	1	0	0	1	276575,21	-0,100000001	2,47288322	-0,00027772036861835254	-0,099977407642168563	0,000247232441	-0,25327987901488285	0,0094502128244644109	0,25327987901488285
1	0	0	1	0	0	1	276955,22	-0,100000001	2,35441828	-0,0002777197128960656	-0,099977171589018227	0,000235388085	-0,26383323917628022	0,009843972881229792	0,26383323917628022
1	0	0	1	0	0	1	277335,23	-0,100000001	2,2149682	-0,00027772000510328342	-0,099977276783918886	0,000221446491	-0,27438661541259968	0,01023773353777213	0,27438661541259968
1	0	0	1	0	0	1	277715,24	-0,100000001	1,99467015	-0,00027772066375654605	-0,099977513894527898	0,000199422167	-0,28494000222458086	0,010631494588906626	0,28494000222458086
1	0	0	1	0	0	1	278095,24	-0,100000001	1,72493458	-0,00027772037820559408	-0,099977411093509069	0,0001724545	-0,29549337889458643	0,011025255261630374	0,29549337889458643
1	0	0	1	0	0	1	278475,25	-0,100000001	1,52243304	-0,00027772036549076442	-0,099977406517422387	0,000152208901	-0,3060467746724121	0,011419016647292581	0,3060467746724121
1	1	0	0	0	0	2	278841,58	0,100000001	2,83862591	0,0002778308715240823	0,10001718792692112	0,000283911388	-0,29955372966229862	0,011176752407973384	0,0083349199330736384
1	1	0	0	0	0	2	279221,59	0,100000001	3,04664588	0,00027782993577462102	0,10001685105894403	0,000304715941	-0,28899615808543514	0,010782835217634653	0,018892491509937165
1	1	0	0	0	0	2	279601,59	0,100000001	3,2016201	0,00027783020978752109	0,10001694970285301	0,000320216262	-0,27843860143067594	0,010388918584059696	0,029450048164696326
1	1	0	0	0	0	2	279981,60	0,100000001	3,36644745	0,00027782989223342797	0,10001683538441635	0,000336701429	-0,26788107193407946	0,0099950029637923059	0,040007577661292826
1	1	0	0	0	0	2	280361,61	0,100000001	3,48111224	0,00027782980833989053	0,10001680518798166	0,000348169735	-0,25732353758292509	0,0096010871623948326	0,050565112012447162
1	1	0	0	0	0	2	280741,62	0,100000001	3,5536921	0,00027783119977638125	0,10001730609547341	0,000355430704	-0,24676597278570499	0,0092071702250137126	0,06112267680966729
1	1	0	0	0	0	2	281121,62	0,100000001	3,60414076	0,00027783086913989651	0,10001718706513776	0,000360476028	-0,23620840528396419	0,0088132531867232896	0,071680244311407962
1	1	0	0	0	0	2	281501,63	0,100000001	3,64248347	0,00027783066182873312	0,10001711243339162	0,00036431069	-0,22565084324661674	0,008419336352316727	0,082237806348755456
1	1	0	0	0	0	2	281881,64	0,100000001	3,67383718	0,00027783116141209997	0,10001729228459808	0,000367447239	-0,21509326415517709	0,0080254188815990566	0,092795385440195085
1	1	0	0	0	0	2	282261,65	0,100000001	3,70089459	0,00027783053934781088	0,10001706834576592	0,000370152615	-0,20453568629403357	0,0076315014567853888	0,10335296330133858
1	1	0	0	0	0	2	282641,65	0,100000001	3,72497344	0,00027783056152818934	0,10001707632821976	0,000372560957	-0,1939780959386601	0,0072375835657952026	0,11391055365671208
1	1	0	0	0	0	2	283021,66	0,100000001	3,74721885	0,00027783009826433331	0,10001690955644277	0,000374785246	-0,18342051251953757	0,006843665933605865	0,12446813707583475
1	1	0	0	0	0	2	283401,67	0,100000001	3,76841426	0,00027783115194406778	0,10001728887617211	0,000376906566	-0,17286293531934656	0,0064497485334532237	0,13502571427602574
1	1	0	0	0	0	2	283781,67	0,100000001	3,78871226	0,00027783185728473795	0,10001754279392421	0,000378937693	-0,1623053398477463	0,0060558304515697382	0,14558330974762598
1	1	0	0	0	0	2	284161,68	0,100000001	3,80889535	0,00027783142821656333	0,10001738832769816	0,000380955753	-0,15174774719206982	0,005661912474752153	0,15614090240330246
1	1	0	0	0	0	2	284541,69	0,100000001	3,82915521	0,00027783094941410752	0,1000172159632973	0,000382981438	-0,14119016514254973	0,0052679948936645242	0,16669848445282256
1	1	0	0	0	0	2	284921,70	0,100000001	3,84979677	0,00027783118735584944	0,10001730162416806	0,000385046296	-0,13063256685896746	0,004874076706862208	0,17725608273640483
1	1	0	0	0	0	2	285301,70	0,100000001	3,8709538	0,0002778315843563113	0,10001744454158245	0,000387162901	-0,12007497668950912	0,0044801588228087661	0,18781367290586323
1	1	0	0	0	0	2	285681,71	0,100000001	3,89304662	0,00027783227510833075	0,10001769320752142	0,000389373541	-0,10951737794979398	0,0040862406189875187	0,19837127164557827
1	1	0	0	0	0	2	286061,72	0,100000001	3,91601801	0,00027783148978816141	0,10001741049537533	0,000391669979	-0,09895977648588919	0,0036923223135230938	0,20892887310948304
1	1	0	0	0	0	2	286441,73	0,100000001	3,93996286	0,00027783148537410634	0,10001740890401744	0,000394064875	-0,088402192861843725	0,0032984046736878061	0,21948645673352848
1	1	0	0	0	0	2	286821,73	0,100000001	3,96555018	0,00027783131459024218	0,10001734742766749	0,0003966238	-0,077844603510444634	0,0029044868201572544	0,23004404608492762
1	1	0	0	0	0	2	287201,74	0,100000001	3,99283671	0,00027783154480076496	0,10001743030185997	0,000399353274	-0,067287010546176269	0,0025105688318256915	0,240601639049196
1	1	0	0	0	0	2	287581,75	0,100000001	4,02172756	0,00027783042363656893	0,10001702668819222	0,000402241247	-0,056729427370927706	0,0021166512087356198	0,25115922222444464
1	1	0	0	0	0	2	287961,75	0,100000001	4,05266094	0,00027783095426981645	0,10001721771481184	0,000405335886	-0,046171859458009286	0,0017227341551036058	0,26171679013736288
1	1	0	0	0	0	2	288341,76	0,100000001	4,08523703	0,00027783099565158285	0,10001723261196091	0,000408594089	-0,035614277529426643	0,0013288165785283157	0,27227437206594557
1	1	0	0	0	0	2	288721,77	0,100000001	4,11867237	0,00027783085062975686	0,10001718040510877	0,000411938003	-0,025056682002114634	0,00093489849456614886	0,28283196759325741
1	1	0	0	0	0	2	289101,78	0,100000001	4,15193558	0,00027783125245943667	0,10001732505635086	0,000415265502	-0,014499084689613309	0,00054098034399616864	0,29338956490575846
1	1	0	0	0	0	2	289481,78	0,100000001	4,18355656	0,0002778317087954945	0,10001748933649718	0,000418428826	-0,003941492422332665	0,00014706238167015523	0,30394715717303891
1	1	0	0	0	0	2	289704,61	0,100000001	4,19984579	7,8458139323939891E-005	0,10001753290300645	0,000420058204	0,0022492595656925098	-8,3922898557637069E-005	0,31013790916106406