File: Experimentelles/Rohdaten/Batteriemessungen/AlteZelle/Studenten_Batterietests/Sonstige/ZView-Export/LiCoO2 vs Li_04_OCV_C01.txt
EC-Lab ASCII FILE
Nb header lines : 48

Open Circuit Voltage

Run on channel : 1 (SN 6985)
Grouped channel(s) : 1
User :
CE vs. WE compliance from -10 V to 10 V
Electrode connection : standard
Ewe ctrl range : min = 0,00 V, max = 5,00 V
Acquisition started on : 01.22.2015 12:12:33
Saved on :
	File : LiCoO2 vs Li_04_OCV_C01.mpr
	Directory : C:\Hupfer\Studenten Batterietests\
	Host : 192.168.0.2
Device : VMP3 (SN 0324)
Address : 192.168.0.1
EC-Lab for windows v10.33 (software)
Internet server v10.33 (firmware)
Command interpretor v10.32 (firmware)
Electrode material : LATP vs Li
Initial state : charged
Electrolyte : DME:Diox 1:2, 1M LiTFSi
Comments : LATP als Elektrode, normaler Seperator und Elektrolyt, Goldschicht teilweise vorhanden, elektrolytschonend, Probe2
Mass of active material : 0,001 mg
 at x = 0,000
Molecular weight of active material (at x = 0) : 0,001 g/mol
Atomic weight of intercalated ion : 0,001 g/mol
Acquisition started at : xo = 0,000
Number of e- transfered per intercalated ion : 1
for DX = 1, DQ = 26,801 mA.h
Battery capacity : 0,000 A.h
Reference electrode : Li+/Li (-3,020 V)
Electrode surface area : 0,001 cm²
Characteristic mass : 0,001 g
Create one data file per loop
tR (h:m:s)          1:00:0,0000
dER/dt (mV/h)       0,0
dER (mV)            0,00
dtR (s)             5,0000
E range min (V)     0,000
E range max (V)     5,000

Number of loops : 1
Loop 0 from point number 0 to 720

mode	error	time/s	Ewe/V
3	0	11041,1396	3,15944052
3	0	11056,1396	3,41659164
3	0	11071,1396	3,46535993
3	0	11086,1396	3,48938131
3	0	11101,1396	3,50417995
3	0	11116,1396	3,51445293
3	0	11131,1396	3,52188087
3	0	11146,1396	3,5275712
3	0	11161,1396	3,53192472
3	0	11176,1396	3,53557205
3	0	11191,1396	3,53849339
3	0	11206,1396	3,54091859
3	0	11221,1396	3,54290438
3	0	11236,1396	3,54464197
3	0	11251,1396	3,5461123
3	0	11266,1396	3,54741073
3	0	11281,1396	3,54838467
3	0	11296,1396	3,54939675
3	0	11311,1396	3,55017948
3	0	11326,1396	3,5509243
3	0	11341,1396	3,55147791
3	0	11356,1396	3,55208898
3	0	11371,1396	3,55249
3	0	11386,1396	3,55277658
3	0	11401,1396	3,55321574
3	0	11416,1396	3,5535593
3	0	11431,1396	3,55361676
3	0	11446,1396	3,5539794
3	0	11461,1396	3,55411315
3	0	11476,1396	3,55439949
3	0	11491,1396	3,5544951
3	0	11506,1396	3,55447602
3	0	11521,1396	3,55478144
3	0	11536,1396	3,55468607
3	0	11551,1396	3,55476236
3	0	11566,1396	3,55478144
3	0	11581,1396	3,55474329
3	0	11596,1396	3,55476236
3	0	11611,1396	3,55481958
3	0	11626,1396	3,55480051
3	0	11641,1396	3,55478144
3	0	11656,1396	3,55474329
3	0	11671,1396	3,55455232
3	0	11686,1396	3,55457139
3	0	11701,1396	3,55445671
3	0	11716,1396	3,55445671
3	0	11731,1396	3,5543232
3	0	11746,1396	3,55430412
3	0	11761,1396	3,55424666
3	0	11776,1396	3,55411315
3	0	11791,1396	3,55401754
3	0	11806,1396	3,55392218
3	0	11821,1396	3,5538075
3	0	11836,1396	3,55376935
3	0	11851,1396	3,55367398
3	0	11866,1396	3,55344486
3	0	11881,1396	3,55346394
3	0	11896,1396	3,55321574
3	0	11911,1396	3,55312014
3	0	11926,1396	3,55298662
3	0	11941,1396	3,55289102
3	0	11956,1396	3,55273819
3	0	11971,1396	3,55262375
3	0	11986,1396	3,55245185
3	0	12001,1396	3,55239463
3	0	12016,1396	3,55214643
3	0	12031,1396	3,55208898
3	0	12046,1396	3,551898
3	0	12061,1396	3,55182171
3	0	12076,1396	3,55163074
3	0	12091,1396	3,55147791
3	0	12106,1396	3,55143976
3	0	12121,1396	3,55117249
3	0	12136,1396	3,55113435
3	0	12151,1396	3,55098152
3	0	12166,1396	3,55079055
3	0	12181,1396	3,55069518
3	0	12196,1396	3,55052328
3	0	12211,1396	3,55027509
3	0	12226,1396	3,55014133
3	0	12241,1396	3,55012226
3	0	12256,1396	3,55000782
3	0	12271,1396	3,54981685
3	0	12286,1396	3,5496068
3	0	12301,1396	3,5494349
3	0	12316,1396	3,549263
3	0	12331,1396	3,549263
3	0	12346,1396	3,54899573
3	0	12361,1396	3,5489192
3	0	12376,1396	3,54876661
3	0	12391,1396	3,54857564
3	0	12406,1396	3,54832745
3	0	12421,1396	3,54823184
3	0	12436,1396	3,54807901
3	0	12451,1396	3,54798365
3	0	12466,1396	3,54765892
3	0	12481,1396	3,54781175
3	0	12496,1396	3,54758263
3	0	12511,1396	3,54729629
3	0	12526,1396	3,54733443
3	0	12541,1396	3,54706717
3	0	12556,1396	3,54700971
3	0	12571,1396	3,54687619
3	0	12586,1396	3,54670429
3	0	12601,1396	3,54657054
3	0	12616,1396	3,54632235
3	0	12631,1396	3,54626513
3	0	12646,1396	3,54605508
3	0	12661,1396	3,5459404
3	0	12676,1396	3,54580688
3	0	12691,1396	3,54555869
3	0	12706,1396	3,54555869
3	0	12721,1396	3,54532957
3	0	12736,1396	3,54523396
3	0	12751,1396	3,5451386
3	0	12766,1396	3,54485202
3	0	12781,1396	3,54483294
3	0	12796,1396	3,54475665
3	0	12811,1396	3,54452753
3	0	12826,1396	3,54443192
3	0	12841,1396	3,54418373
3	0	12856,1396	3,54406929
3	0	12871,1396	3,54391646
3	0	12886,1396	3,54382086
3	0	12901,1396	3,54372549
3	0	12916,1396	3,54351544
3	0	12931,1396	3,54345822
3	0	12946,1396	3,54338169
3	0	12961,1396	3,54307628
3	0	12976,1396	3,54309535
3	0	12991,1396	3,54292345
3	0	13006,1396	3,54275155
3	0	13021,1396	3,54261804
3	0	13036,1396	3,54248428
3	0	13051,1396	3,54238892
3	0	13066,1396	3,54223609
3	0	13081,1396	3,54206419
3	0	13096,1396	3,5419879
3	0	13111,1396	3,5417397
3	0	13126,1396	3,54160595
3	0	13141,1396	3,54151058
3	0	13156,1396	3,54133868
3	0	13171,1396	3,54128122
3	0	13186,1396	3,54110956
3	0	13201,1396	3,54107118
3	0	13216,1396	3,54089952
3	0	13231,1396	3,54065132
3	0	13246,1396	3,54063201
3	0	13261,1396	3,54051757
3	0	13276,1396	3,54040289
3	0	13291,1396	3,54028845
3	0	13306,1396	3,5400784
3	0	13321,1396	3,54000187
3	0	13336,1396	3,53979182
3	0	13351,1396	3,53967738
3	0	13366,1396	3,53952456
3	0	13381,1396	3,53952456
3	0	13396,1396	3,53937173
3	0	13411,1396	3,53923821
3	0	13426,1396	3,53902817
3	0	13441,1396	3,53887534
3	0	13456,1396	3,53879905
3	0	13471,1396	3,53872252
3	0	13486,1396	3,5387609
3	0	13501,1396	3,53860807
3	0	13516,1396	3,53843617
3	0	13531,1396	3,53826427
3	0	13546,1396	3,53818798
3	0	13561,1396	3,53795886
3	0	13576,1396	3,53797793
3	0	13591,1396	3,53788233
3	0	13606,1396	3,53771067
3	0	13621,1396	3,53750062
3	0	13636,1396	3,53744316
3	0	13651,1396	3,53738594
3	0	13666,1396	3,5372715
3	0	13681,1396	3,53702307
3	0	13696,1396	3,53694677
3	0	13711,1396	3,53683233
3	0	13726,1396	3,53679395
3	0	13741,1396	3,53648853
3	0	13756,1396	3,53643131
3	0	13771,1396	3,53645039
3	0	13786,1396	3,53633571
3	0	13801,1396	3,53624034
3	0	13816,1396	3,53610659
3	0	13831,1396	3,53589654
3	0	13846,1396	3,53585839
3	0	13861,1396	3,5356102
3	0	13876,1396	3,53549552
3	0	13891,1396	3,53549552
3	0	13906,1396	3,5352664
3	0	13921,1396	3,53520918
3	0	13936,1396	3,53513288
3	0	13951,1396	3,53492284
3	0	13966,1396	3,53488445
3	0	13981,1396	3,53480816
3	0	13996,1396	3,53463626
3	0	14011,1396	3,53454089
3	0	14026,1396	3,53452182
3	0	14041,1396	3,53446436
3	0	14056,1396	3,53417802
3	0	14071,1396	3,53419709
3	0	14086,1396	3,53408265
3	0	14101,1396	3,53385353
3	0	14116,1396	3,53385353
3	0	14131,1396	3,53381515
3	0	14146,1396	3,53362417
3	0	14161,1396	3,53356695
3	0	14176,1396	3,5333569
3	0	14191,1396	3,53328061
3	0	14206,1396	3,53329968
3	0	14221,1396	3,53305149
3	0	14236,1396	3,53299403
3	0	14251,1396	3,53303242
3	0	14266,1396	3,5328033
3	0	14281,1396	3,53266954
3	0	14296,1396	3,53266954
3	0	14311,1396	3,53255486
3	0	14326,1396	3,53242135
3	0	14341,1396	3,53232574
3	0	14356,1396	3,53215408
3	0	14371,1396	3,53213477
3	0	14386,1396	3,53202033
3	0	14401,1396	3,5318675
3	0	14416,1396	3,53177214
3	0	14431,1396	3,53163838
3	0	14446,1396	3,53154302
3	0	14461,1396	3,53150463
3	0	14476,1396	3,53140926
3	0	14491,1396	3,53133297
3	0	14506,1396	3,53129458
3	0	14521,1396	3,53118014
3	0	14536,1396	3,53093195
3	0	14551,1396	3,53091288
3	0	14566,1396	3,53068376
3	0	14581,1396	3,53068376
3	0	14596,1396	3,53064537
3	0	14611,1396	3,53049278
3	0	14626,1396	3,53053093
3	0	14641,1396	3,53016806