File: Experimentelles/Rohdaten/Batteriemessungen/AlteZelle/Studenten_Batterietests/Sonstige/ZView-Export/LiCoO2 vs Li_02_CV_C01_loop0.txt
EC-Lab ASCII FILE
Nb header lines : 3
mode	ox/red	error	control changes	counter inc.	time/s	control/V	Ewe/V	<I>/mA	cycle number	(Q-Qo)/C	P/W
2	0	0	1	0	3600,06	3,10296631	3,1033597	-0,0053188507445156576	1	0	1,65063066E-005
2	0	0	0	0	3606,73	3,03625941	3,03614426	-0,036967882081322957	1	-0,000224144111	0,000112239824
2	0	0	1	0	3613,38	2,96975255	2,96992064	-0,041189951193572941	1	-0,000486454519	0,000122330879
2	0	0	1	0	3620,03	2,90324688	2,90347981	-0,045527041317351968	1	-0,000778660993	0,000132186848
2	0	0	0	0	3626,68	2,83674073	2,83684683	-0,050898981688078605	1	-0,00110351446	0,000144392616
2	0	0	1	0	3633,33	2,77023435	2,77073479	-0,057159961880340224	1	-0,0014654788	0,0001583751
2	0	0	0	0	3639,98	2,7037282	2,70418191	-0,064313811657484838	1	-0,00187144661	0,00017391624
2	0	0	1	0	3646,64	2,63722205	2,63745856	-0,072764135043447027	1	-0,00232957746	0,00019191239
2	0	0	0	0	3653,29	2,5707159	2,57107639	-0,082253991529190323	1	-0,00284801656	0,000211481296
2	0	0	1	0	3659,94	2,50420976	2,50426269	-0,09339691756758839	1	-0,00343518076	0,000233890416
2	0	0	0	0	3666,63	2,43730354	2,43750978	-0,1067540460499008	1	-0,00410640193	0,00026021403
2	0	0	1	0	3673,28	2,37079716	2,3709867	-0,11993218221080794	1	-0,00486604683	0,000284357608
2	0	0	1	0	3679,93	2,30429101	2,30464435	-0,1321553016314283	1	-0,005706158	0,000304570975
2	0	0	0	0	3686,58	2,23778486	2,23806143	-0,14617188270979843	1	-0,00663645938	0,000327141664
2	0	0	1	0	3693,23	2,17127872	2,17136812	-0,15851916644411766	1	-0,00765634002	0,000344203465
2	0	0	0	0	3699,88	2,10477233	2,10498571	-0,17069078628749955	1	-0,0087548783	0,000359301659
2	0	0	1	0	3706,53	2,03826642	2,03853321	-0,18157275378083248	1	-0,0099311471	0,000370142079
2	0	0	0	0	3713,18	1,97176015	1,97225118	-0,19207368317681085	1	-0,0111789284	0,000378817553
2	0	0	1	0	3719,83	1,90525401	1,90549791	-0,20151517276341747	1	-0,012491731	0,000383986742
2	0	0	0	0	3726,48	1,83874774	1,83883452	-0,21398561703972518	1	-0,0138756968	0,000393484137
2	0	0	1	0	3733,13	1,77224159	1,77253234	-0,23149040613013085	1	-0,0153589789	0,000410324225
2	0	0	1	0	3739,78	1,70573533	1,70606983	-0,25155484838721722	1	-0,0169668123	0,000429170148
2	0	0	0	0	3746,43	1,63922918	1,63942659	-0,27625197521410906	1	-0,018724503	0,000452894834
2	0	0	1	0	3753,09	1,57272291	1,57287371	-0,30468264369604493	1	-0,0206570122	0,00047922731
2	0	0	0	0	3759,74	1,50621676	1,50642121	-0,33979603562814464	1	-0,0228002537	0,000511875958
2	0	0	1	0	3766,39	1,4397105	1,4399085	-0,38649741234257818	1	-0,0252115373	0,000556520885
2	0	0	0	0	3773,04	1,37320435	1,37331545	-0,45443461881950496	1	-0,0279985294	0,000624082109
2	0	0	1	0	3779,69	1,30669808	1,30691302	-0,54741465641806688	1	-0,0313289985	0,000715423317
2	0	0	0	0	3786,34	1,24019194	1,24052048	-0,64540988517304384	1	-0,0353031158	0,000800644164
2	0	0	1	0	3792,99	1,17368567	1,17394757	-0,74490465146179123	1	-0,0399194881	0,00087447901
2	0	0	0	0	3799,64	1,10717881	1,10739422	-0,92738886610884211	1	-0,0453880951	0,00102698512
2	0	0	0	0	3806,33	1,04027343	1,04039085	-1,4561375705525315	1	-0,0530686826	0,00151495216
2	0	0	1	0	3812,98	0,973767221	0,973868072	-2,650071847562984	1	-0,0663805753	0,00258082035
2	0	0	0	0	3819,63	0,907261014	0,907616019	-4,1395116696755066	1	-0,0889100134	0,00375708705
2	0	0	1	0	3826,28	0,840754688	0,840912759	-5,6602544710040058	1	-0,121544756	0,00475978013
2	0	0	0	0	3832,93	0,7742486	0,774540365	-7,0491385062535667	1	-0,163919821	0,00545984227
2	0	0	1	0	3839,58	0,707742453	0,708057642	-8,2170193021496371	1	-0,214852974	0,00581812346
2	0	0	0	0	3846,23	0,641236186	0,641715348	-9,1985443060596877	1	-0,272773266	0,00590284728
2	0	0	1	0	3852,91	0,574429929	0,574641168	-10,091995994249998	1	-0,337276459	0,00579927629
2	0	0	0	0	3859,56	0,507923722	0,508008182	-10,954823290308312	1	-0,407274246	0,00556513993
2	1	0	0	0	3866,14	0,557828426	0,558080733	-9,061341953774359	1	-0,473847866	0,00505696051
2	1	0	1	0	3872,79	0,624334633	0,62460345	-7,2302195976177894	1	-0,527778447	0,00451601995
2	1	0	0	0	3879,44	0,69084084	0,691025972	-5,7702421620488243	1	-0,570824385	0,00398738729
2	1	0	1	0	3886,13	0,757747054	0,757749319	-4,5801584149400442	1	-0,605302215	0,00347061199
2	1	0	0	0	3892,78	0,824253142	0,824522674	-3,5753653918703418	1	-0,632318735	0,00294796983
2	1	0	1	0	3899,43	0,890759468	0,891045332	-2,7167279322942192	1	-0,6531564	0,00242072763
2	1	0	0	0	3906,08	0,957265973	0,957538009	-1,9740142682427405	1	-0,668687224	0,00189019367
2	1	0	0	0	3912,73	1,02377188	1,02414107	-1,3350047006582262	1	-0,679632664	0,00136723311
2	1	0	1	0	3919,38	1,09027803	1,0903331	-0,7970648494859543	1	-0,686660767	0,000869066163
2	1	0	0	0	3926,07	1,15718412	1,15765786	-0,35365739394910701	1	-0,690449238	0,000409414264
2	1	0	1	0	3932,76	1,22409034	1,22411036	0,0026034996268814758	1	-0,691573679	3,18697084E-006
2	1	0	0	0	3939,45	1,29099667	1,291345	0,29109997108268269	1	-0,690557182	0,000375910487
2	1	0	1	0	3946,10	1,35750294	1,35764718	0,53604322920242707	1	-0,687782526	0,000727757579
2	1	0	0	0	3952,75	1,42400908	1,42437041	0,75617711649586906	1	-0,683472097	0,0010770763
2	1	0	1	0	3959,40	1,49051535	1,49090326	0,96564532257616525	1	-0,677740514	0,00143968372
2	1	0	1	0	3966,10	1,55742157	1,55770683	1,1779386668155638	1	-0,670561433	0,00183488312
2	1	0	0	0	3972,75	1,62392771	1,62407923	1,390029186382892	1	-0,662017345	0,00225751754
2	1	0	1	0	3979,40	1,69043386	1,69062185	1,6080319210886883	1	-0,652043462	0,0027185739
2	1	0	0	0	3986,05	1,75694013	1,75738513	1,8278450164943933	1	-0,640615463	0,00321222772
2	1	0	1	0	3992,70	1,82344627	1,82370746	2,0531788114458339	1	-0,62770921	0,00374439755
2	1	0	0	0	3999,35	1,88995242	1,89019024	2,2860890893886534	1	-0,613278687	0,0043211435
2	1	0	1	0	4006,00	1,95645869	1,95685339	2,5275902605305082	1	-0,597270608	0,00494612334
2	1	0	0	0	4012,65	2,02296495	2,02306533	2,7701303716748918	1	-0,579647124	0,0056041549
2	1	0	1	0	4019,30	2,0894711	2,0896883	2,9880789158244883	1	-0,560468435	0,00624415372
2	1	0	1	0	4025,95	2,15597725	2,15628123	3,0872967152049197	1	-0,540163517	0,00665707979
2	1	0	0	0	4032,60	2,2224834	2,22279429	2,9032703364888806	1	-0,520029902	0,00645337254
2	1	0	1	0	4039,25	2,28898954	2,2892468	2,2868136521428822	1	-0,502513468	0,00523508061
2	1	0	0	0	4045,90	2,35549593	2,35561895	1,4928373203923328	1	-0,490151525	0,003516556
2	1	0	1	0	4052,55	2,42200232	2,42217207	1,3343351216365882	1	-0,481018573	0,00323198922
2	1	0	0	0	4059,20	2,48850822	2,48870468	1,475056964593623	1	-0,471771896	0,00367098115
2	1	0	1	0	4065,85	2,55501461	2,55507731	1,7556869400044307	1	-0,461086541	0,00448591588
2	1	0	0	0	4072,51	2,62152076	2,6217401	2,1164023193220346	1	-0,448235214	0,00554865692
2	1	0	1	0	4079,16	2,68802691	2,68819308	2,479699615389105	1	-0,432924747	0,00666591153
2	1	0	0	0	4085,81	2,75453258	2,75474524	2,7663350974206794	1	-0,415416688	0,00762054836
2	1	0	0	0	4092,46	2,8210392	2,82105803	2,9303300889829843	1	-0,396402568	0,00826663151
2	1	0	1	0	4099,11	2,88754582	2,88781166	2,9879544215897626	1	-0,376669556	0,00862864964
2	1	0	0	0	4105,76	2,95405197	2,95420408	2,9774949240187744	1	-0,356802821	0,00879612751
2	1	0	1	0	4112,41	3,02055812	3,02073693	2,9223469837258234	1	-0,337164938	0,00882764161
2	1	0	0	0	4119,06	3,08706427	3,08719969	2,8007147150735037	1	-0,318075746	0,00864636526
2	1	0	1	0	4125,71	3,15357018	3,15360188	2,5138980777313229	1	-0,300272465	0,00792783406
2	1	0	0	0	4132,36	3,2200768	3,22012472	1,9703784783681187	1	-0,285222441	0,00634486461
2	1	0	1	0	4139,01	3,28658295	3,28706837	1,3269598099092654	1	-0,274303526	0,00436180783
2	1	0	1	0	4145,66	3,35308909	3,35331059	0,93621322792023424	1	-0,266947418	0,00313941366
2	1	0	0	0	4152,31	3,419595	3,41960287	0,7855195449665184	1	-0,261308014	0,00268616481
2	1	0	1	0	4158,96	3,48610163	3,48615551	0,74894485731298662	1	-0,256245404	0,00261093816
2	1	0	0	0	4165,61	3,55260777	3,55255818	0,77403664278487245	1	-0,251204938	0,00274981023
2	1	0	1	0	4172,26	3,61911392	3,61927152	0,84741172132392422	1	-0,245833769	0,00306701311
2	1	0	0	0	4178,92	3,68561983	3,68588448	0,94508310003826778	1	-0,239879981	0,00348346704
2	1	0	1	0	4185,57	3,75212646	3,7522366	1,0893098873396702	1	-0,233144507	0,00408734847
2	1	0	0	0	4192,22	3,8186326	3,81883979	1,3184051141142845	1	-0,225189358	0,0050347778
2	1	0	1	0	4198,87	3,88513875	3,88539267	1,6703076045960154	1	-0,215322837	0,00648980075
2	1	0	0	0	4205,52	3,95164466	3,95178413	2,1759166323450074	1	-0,202617362	0,00859875325
2	1	0	0	0	4212,17	4,01815128	4,0183382	2,8491527773439866	1	-0,185996339	0,0114488592
2	1	0	1	0	4218,82	4,08465719	4,0849309	3,6976920478045939	1	-0,164312914	0,0151048163
2	1	0	0	0	4225,47	4,15116358	4,15128279	4,6977237674097267	1	-0,13646172	0,0195015799
2	0	0	1	1	4232,08	4,18266535	4,18293047	5,0565142890475648	1	-0,102444544	0,0211510472
2	0	0	0	1	4238,73	4,11616039	4,11640787	3,5231719762086867	1	-0,0740667433	0,0145028131
2	0	0	1	1	4245,38	4,04965401	4,04984522	2,2354547797391754	1	-0,0550623238	0,00905324612
2	0	0	0	1	4252,03	3,98314762	3,98298144	1,1908637071028334	1	-0,0438152477	0,00474318815
2	0	0	1	1	4258,72	3,91624141	3,91647887	0,4183403349791952	1	-0,0386152118	0,00163842109
2	0	0	0	1	4265,41	3,84933519	3,8496654	-0,0031437651341548256	1	-0,0374188237	1,21024441E-005
2	0	0	1	1	4272,10	3,78242898	3,7826612	-0,1720458846151207	1	-0,0381051451	0,000650791277
2	0	0	0	1	4278,75	3,71592379	3,71606827	-0,23727664397462531	1	-0,0395005234	0,000881736225
2	0	0	0	1	4285,41	3,64941645	3,64960575	-0,2728063115694881	1	-0,0412100144	0,000995635521
2	0	0	1	1	4292,06	3,5829103	3,58318329	-0,29810330977973811	1	-0,043116767	0,00106815877
2	0	0	0	1	4298,71	3,51640415	3,51647973	-0,31805548646176838	1	-0,0451724902	0,00111843564
2	0	0	1	1	4305,36	3,449898	3,45010781	-0,33395191080247334	1	-0,0473478772	0,00115217012
2	0	0	0	1	4312,01	3,38339162	3,38357449	-0,34632534479412013	1	-0,0496165864	0,00117181765
2	0	0	1	1	4318,66	3,31688547	3,31694174	-0,35427615977823821	1	-0,0519523174	0,00117511337
2	0	0	0	1	4325,31	3,25037932	3,25047874	-0,35880972840823322	1	-0,0543293022	0,00116630341
2	0	0	1	1	4331,96	3,18387318	3,18400621	-0,35990773832115155	1	-0,0567253381	0,00114594842
2	0	0	0	1	4338,61	3,11736608	3,11772394	-0,35996879126796346	1	-0,0591251589	0,00112228328
2	0	0	0	1	4340,05	3,10296631	3,10327935	-0,3599870839844583	1	-0,0596442819	0,00111714052