File: Experimentelles/Rohdaten/Batteriemessungen/AlteZelle/Studenten_Batterietests/Sonstige/ZView-Export/LiCoO2 vs Li_05_GCPL_C01_loop3.txt
EC-Lab ASCII FILE
Nb header lines : 3
mode	ox/red	error	control changes	Ns changes	counter inc.	Ns	time/s	control/V/mA	Ewe/V	dq/mA.h	<I>/mA	P/W	(Q-Qo)/mA.h	x	Capacity/mA.h
1	0	0	1	1	0	1	141462,59	-0,100000001	4,19570208	0	0	0	0	0	0
1	0	0	1	0	0	1	141952,59	-0,100000001	3,87401009	-0,0002777166657191184	-0,099977984016108032	0,000387315726	-0,013606748042569298	0,0005076860639355744	0,013606748042569298
1	0	0	1	0	0	1	142442,59	-0,100000001	3,82117438	-0,00027771750290360717	-0,099978285402476838	0,000382034457	-0,027214851996515264	0,0010154227187476547	0,027214851996515264
1	0	0	1	0	0	1	142932,59	-0,100000001	3,78134251	-0,00027771649284164109	-0,099977921780225946	0,000378050754	-0,040822966844565235	0,0015231597800334026	0,040822966844565235
1	0	0	1	0	0	1	143422,59	-0,100000001	3,74693346	-0,00027771577348684272	-0,099977662812539046	0,000374609663	-0,05443105232260985	0,0020308957454847626	0,05443105232260985
1	0	0	1	0	0	1	143912,59	-0,100000001	3,71515965	-0,00027771625185509523	-0,099977835025083008	0,00037143362	-0,068039147154072819	0,0025386320599247366	0,068039147154072819
1	0	0	1	0	0	1	144402,59	-0,100000001	3,68472219	-0,00027771690163264675	-0,099978068944964954	0,000368391396	-0,081647255940322099	0,003046368895036551	0,081647255940322099
1	0	0	1	0	0	1	144892,59	-0,100000001	3,65443778	-0,00027771679209089946	-0,099978029509942093	0,000365363492	-0,095255354978622131	0,0035541053664392717	0,095255354978622131
1	0	0	1	0	0	1	145382,59	-0,100000001	3,62377143	-0,00027771703533704083	-0,09997811707853929	0,00036229784	-0,10886347890331787	0,0040618427663868768	0,10886347890331787
1	0	0	1	0	0	1	145872,59	-0,100000001	3,59161544	-0,00027771564338935747	-0,099977615977451686	0,000359081139	-0,12247159307351317	0,0045695798023809555	0,12247159307351317
1	0	0	1	0	0	1	146362,59	-0,100000001	3,55758834	-0,00027771664186525677	-0,099977975428719194	0,000355680473	-0,1360797076394544	0,0050773168531408474	0,1360797076394544
1	0	0	1	0	0	1	146852,59	-0,100000001	3,52138448	-0,00027771630878787901	-0,099977855520881971	0,000352060481	-0,14968781709146896	0,0055850537130932582	0,14968781709146896
1	0	0	1	0	0	1	147342,59	-0,100000001	3,48193431	-0,00027771565530490544	-0,099977620267048294	0,000348115514	-0,16329589240704038	0,0060927892993690816	0,16329589240704038
1	0	0	1	0	0	1	147832,59	-0,100000001	3,43984914	-0,00027771651712846426	-0,099977930523480922	0,000343908992	-0,17690397863412458	0,0066005252927681139	0,17690397863412458
1	0	0	1	0	0	1	148322,59	-0,100000001	3,39400244	-0,00027771628883977731	-0,099977848339566464	0,000339325052	-0,1905120942450048	0,0071082623825160832	0,1905120942450048
1	0	0	1	0	0	1	148812,59	-0,100000001	3,34404993	-0,00027771697647910982	-0,099978095889687437	0,000334331737	-0,20412020834973555	0,0076159994160675917	0,20412020834973555
1	0	0	1	0	0	1	149302,59	-0,100000001	3,29022145	-0,00027771690676775242	-0,099978070793602701	0,000328950002	-0,21772833113619869	0,0081237367735462093	0,21772833113619869
1	0	0	1	0	0	1	149792,59	-0,100000001	3,23131371	-0,00027771673834572237	-0,09997801016168137	0,000323060318	-0,23133648491949075	0,0086314752875581888	0,23133648491949075
1	0	0	1	0	0	1	150282,59	-0,100000001	3,1663146	-0,00027771661895844669	-0,099977967182268851	0,000316561694	-0,24494461075277078	0,0091392127587176397	0,24494461075277078
1	0	0	1	0	0	1	150772,59	-0,100000001	3,09480429	-0,00027771788952789376	-0,099978424587198234	0,000309413648	-0,25855274927717565	0,0096469507034000218	0,25855274927717565
1	0	0	1	0	0	1	151262,59	-0,100000001	3,01366997	-0,00027771525916746922	-0,099977477657593562	0,000301299122	-0,27216086916580438	0,010154687952756541	0,27216086916580438
1	0	0	1	0	0	1	151752,59	-0,100000001	2,92000937	-0,00027771728802596531	-0,099978208046537869	0,000291937293	-0,28576897299440525	0,010662424602891827	0,28576897299440525
1	0	0	1	0	0	1	152242,59	-0,100000001	2,81219959	-0,00027771721687581805	-0,099978182432488883	0,000281158602	-0,29937710620378509	0,01117016234926348	0,29937710620378509
1	0	0	1	0	0	1	152732,59	-0,100000001	2,6908133	-0,00027771698388747043	-0,099978098556696845	0,000269022392	-0,31298521845148813	0,011677899313526787	0,31298521845148813
1	0	0	1	0	0	1	153222,59	-0,100000001	2,56140709	-0,00027771771563258435	-0,09997836198489664	0,000256085274	-0,32659335504641562	0,012185637186217774	0,32659335504641562
1	0	0	1	0	0	1	153712,59	-0,100000001	2,42713165	-0,00027771712493896486	-0,099978149335226906	0,000242660128	-0,34020148927078675	0,012693374970460117	0,34020148927078675
1	0	0	1	0	0	1	154202,59	-0,100000001	2,27104998	-0,00027771728657310208	-0,0999782075235072	0,000227055512	-0,35380963381273491	0,01320111313966513	0,35380963381273491
1	0	0	1	0	0	1	154692,59	-0,100000001	2,01496816	-0,00027771818208073578	-0,09997852990620489	0,000201453557	-0,36741780704224006	0,013708852379241464	0,36741780704224006
1	0	0	1	0	0	1	155182,59	-0,100000001	1,70669889	-0,00027771617703305347	-0,099977808089152192	0,000170632018	-0,38102592449669728	0,01421658953777577	0,38102592449669728
1	0	0	1	0	0	1	155672,59	-0,100000001	1,50245976	-0,00027771685751858685	-0,099978053063905882	0,000150213004	-0,39463404061139277	0,01472432664632177	0,39463404061139277
1	1	0	0	0	0	2	156152,08	0,100000001	2,90137172	0,00027782423385315469	0,10001670853830219	0,00029018565	-0,38183991421763418	0,014246960588684746	0,013057718408273741
1	1	0	0	0	0	2	156642,08	0,100000001	3,15428376	0,00027782295693291562	0,10001624884708803	0,000315479643	-0,36822655068093171	0,013739027691768438	0,026671081944976416
1	1	0	0	0	0	2	157132,08	0,100000001	3,3632586	0,00027782319066466554	0,10001633299050485	0,000336380792	-0,3546132204420752	0,013231096037239531	0,040284412183832787
1	1	0	0	0	0	2	157622,08	0,100000001	3,49892783	0,00027782308859874803	0,1000162962467803	0,000349949813	-0,34099988695251021	0,012723164261422318	0,053897745673397747
1	1	0	0	0	0	2	158112,08	0,100000001	3,58153248	0,00027782469583509699	0,10001687485177538	0,0003582137	-0,32738652919262765	0,012215231580046925	0,067511103433280346
1	1	0	0	0	0	2	158602,08	0,100000001	3,63759518	0,00027782403946378166	0,10001663855813883	0,000363820029	-0,31377314187980742	0,011707297796011696	0,081124490746100326
1	1	0	0	0	0	2	159092,08	0,100000001	3,68055868	0,00027782463310741715	0,10001685226981418	0,000368117908	-0,30015973628527149	0,011199363329861072	0,094737896340636326
1	1	0	0	0	0	2	159582,08	0,100000001	3,71508217	0,00027782385778592694	0,10001657315412138	0,000371569797	-0,28654635464222211	0,010691429757372614	0,10835127798368573
1	1	0	0	0	0	2	160072,08	0,100000001	3,74485111	0,00027782537915350659	0,10001712084636437	0,000374549214	-0,27293293887714522	0,010183494911745434	0,12196469374876262
1	1	0	0	0	0	2	160562,08	0,100000001	3,77154589	0,00027782329098673331	0,10001636910644358	0,000377216318	-0,25931954760040067	0,009675560979810857	0,1355780850255072
1	1	0	0	0	0	2	161052,08	0,100000001	3,79615927	0,00027782330129709504	0,10001637281817325	0,000379678095	-0,24570620138436682	0,0091676287291519821	0,14919143124154099
1	1	0	0	0	0	2	161542,08	0,100000001	3,81976056	0,00027782404564941923	0,10001664078496802	0,000382039609	-0,2320928411250752	0,0086596959545202778	0,16280479150083261
1	1	0	0	0	0	2	162032,08	0,100000001	3,84284616	0,00027782411007376182	0,10001666397772771	0,000384348648	-0,21847945092582867	0,0081517620627886029	0,1764181817000791
1	1	0	0	0	0	2	162522,08	0,100000001	3,86604643	0,00027782397858881293	0,1000166166431535	0,000386668893	-0,20486607084126237	0,0076438285484492442	0,19003156178464541
1	1	0	0	0	0	2	163012,08	0,100000001	3,88949513	0,00027782430635227101	0,10001673463797997	0,000389014604	-0,19125268224099661	0,0071358947163776896	0,20364495038491117
1	1	0	0	0	0	2	163502,08	0,100000001	3,91263819	0,00027782383668257133	0,10001656555691454	0,00039132862	-0,17763932190203018	0,0066279619387732109	0,21725831072387757
1	1	0	0	0	0	2	163992,08	0,100000001	3,93572378	0,00027782456085003085	0,10001682625715917	0,000393638591	-0,16402593662692122	0,0061200282307677274	0,23087169599898656
1	1	0	0	0	0	2	164482,08	0,100000001	3,95842767	0,00027782522032741043	0,1000170636689787	0,00039591032	-0,15041251333169446	0,0056120931041805306	0,24448511929421328
1	1	0	0	0	0	2	164972,08	0,100000001	3,98120785	0,00027782476962978643	0,10001690141785942	0,000398188073	-0,13679909880206581	0,0051041583046495846	0,25809853382384208
1	1	0	0	0	0	2	165462,08	0,100000001	4,00396919	0,00027782443241816429	0,10001678002169445	0,000400464109	-0,1231856679361016	0,0045962228955879942	0,27171196468980618
1	1	0	0	0	0	2	165952,08	0,100000001	4,02638674	0,00027782436376230586	0,10001675530558928	0,000402706151	-0,10957225951748266	0,0040882883240670362	0,28532537310842515
1	1	0	0	0	0	2	166442,08	0,100000001	4,04865122	0,0002778241676303248	0,10001668469808714	0,000404932682	-0,095958852029539712	0,0035803537872708512	0,29893878059636813
1	1	0	0	0	0	2	166932,08	0,100000001	4,07087755	0,00027782488402186166	0,10001694259900006	0,000407156738	-0,082345428273523866	0,0030724186434909946	0,31255220435238387
1	1	0	0	0	0	2	167422,08	0,100000001	4,09276056	0,0002778253274965617	0,1000171022498671	0,000409346045	-0,068732009172360064	0,0025644836733899251	0,32616562345354765
1	1	0	0	0	0	2	167912,08	0,100000001	4,11443329	0,00027782510501311891	0,10001702215584022	0,000411513378	-0,055118600078956922	0,0020565490766918614	0,33977903254695066
1	1	0	0	0	0	2	168402,08	0,100000001	4,1363349	0,00027782449650723075	0,10001680309375475	0,000413703005	-0,041505204428425677	0,0015486149815654227	0,35339242819748198
1	1	0	0	0	0	2	168892,08	0,100000001	4,15806484	0,00027782432617412675	0,10001674177384693	0,0004158761	-0,027891820564295683	0,0010406813262054619	0,36700581206161197
1	1	0	0	0	0	2	169382,08	0,100000001	4,17989063	0,0002778243626124329	0,10001675489163509	0,000418059091	-0,014278412963375454	0,00053274678519394278	0,38061921966253229
1	1	0	0	0	0	2	169841,35	0,100000001	4,19996023	0,0002575369506544537	0,10001649195771531	0,000420065277	-0,001518799676431968	5,6668457975559885E-005	0,39337883294947565