File: Experimentelles/Rohdaten/Batteriemessungen/AlteZelle/Studenten_Batterietests/Sonstige/ZView-Export/LiCoO2 vs Li_02_CV_C01_loop1.txt
EC-Lab ASCII FILE
Nb header lines : 3
mode	ox/red	error	control changes	counter inc.	time/s	control/V	Ewe/V	<I>/mA	cycle number	(Q-Qo)/C	P/W
2	0	0	1	0	4340,22	3,10266638	3,10327935	-0,43024680018424986	2	0	0,00133517606
2	0	0	0	0	4346,85	3,03636003	3,0363667	-0,35775849085746701	2	-0,00238557532	0,00108628592
2	0	0	1	0	4353,50	2,96985435	2,97003269	-0,35843958389543571	2	-0,00477051595	0,00106457726
2	0	0	1	0	4360,15	2,90334725	2,90364027	-0,35964587517082803	2	-0,00716338027	0,00104428222
2	0	0	0	0	4366,80	2,83684111	2,83687711	-0,36175296052048698	2	-0,00956765562	0,00102624868
2	0	0	1	0	4373,45	2,77033472	2,7707653	-0,36410034129706534	2	-0,0119853988	0,00100883655
2	0	0	0	0	4380,10	2,70382857	2,70426273	-0,36611663394918106	2	-0,0144179733	0,000990075525
2	0	0	1	0	4386,76	2,63732243	2,63779998	-0,36897223458315008	2	-0,0168671273	0,000973274931
2	0	0	0	0	4393,41	2,57081628	2,57110667	-0,37170528760179923	2	-0,0193347298	0,000955693948
2	0	0	1	0	4400,06	2,50431013	2,5043633	-0,37469849378491558	2	-0,0218220465	0,000938381185
2	0	0	0	0	4406,71	2,43780398	2,43805099	-0,3770969887264073	2	-0,0243260078	0,00091938168
2	0	0	0	0	4413,36	2,37129641	2,37159729	-0,37792760073866458	2	-0,026841417	0,000896292098
2	0	0	1	0	4420,01	2,30479145	2,30516577	-0,3774851265673833	2	-0,0293586943	0,000870165764
2	0	0	0	0	4426,66	2,23828506	2,23853278	-0,37495771772228224	2	-0,0318656117	0,000839355169
2	0	0	1	0	4433,31	2,17177892	2,17187977	-0,37157947096663315	2	-0,0343532562	0,000807025936
2	0	0	0	0	4439,96	2,10527277	2,10568738	-0,36886916620036026	2	-0,03681973	0,000776723144
2	0	0	1	0	4446,61	2,03876662	2,03924513	-0,36717622680589645	2	-0,0392713733	0,000748762337
2	0	0	0	0	4453,26	1,97226048	1,97248197	-0,36816629511304179	2	-0,04171931	0,000726201397
2	0	0	1	0	4459,91	1,90575421	1,90599906	-0,37255621802372205	2	-0,0441841073	0,000710091786
2	0	0	0	0	4466,56	1,83924806	1,8392458	-0,38094555772841062	2	-0,0466917977	0,000700652541
2	0	0	1	0	4473,21	1,77274144	1,77304351	-0,39346096673551046	2	-0,0492700115	0,000697623414
2	0	0	1	0	4479,86	1,70623565	1,70635056	-0,40997587439293779	2	-0,0519456305	0,000699562544
2	0	0	0	0	4486,51	1,63972926	1,64011836	-0,42970226161802925	2	-0,0547412373	0,000704762584
2	0	0	1	0	4493,17	1,57322323	1,57349527	-0,45421189116314067	2	-0,0576823391	0,000714700262
2	0	0	0	0	4499,82	1,50671697	1,50679231	-0,48478298556680512	2	-0,0608052947	0,000730467262
2	0	0	1	0	4506,47	1,44021082	1,44030952	-0,52496475012351904	2	-0,0641624406	0,000756111753
2	0	0	0	0	4513,12	1,37370443	1,37390709	-0,57899678653727002	2	-0,0678305998	0,00079548778
2	0	0	1	0	4519,77	1,30719841	1,30755472	-0,65407367050647731	2	-0,0719233379	0,000855237129
2	0	0	0	0	4526,42	1,24069214	1,24105215	-0,75829673853392525	2	-0,0766046792	0,000941085804
2	0	0	1	0	4533,07	1,17418587	1,17430854	-0,90095972424994035	2	-0,0821025372	0,00105800468
2	0	0	1	0	4539,76	1,10727966	1,10742486	-1,1047827263052242	2	-0,0887777284	0,0012234638
2	0	0	0	0	4546,41	1,04077351	1,04111266	-1,4133453670268282	2	-0,0970857516	0,00147145172
2	0	0	1	0	4553,06	0,974267423	0,974640131	-1,8649268113076659	2	-0,107904688	0,00181763247
2	0	0	0	0	4559,71	0,907761097	0,907946885	-2,657005399465561	2	-0,122590601	0,00241241977
2	0	0	1	0	4566,36	0,84125489	0,841414034	-4,1742945425212173	2	-0,144996822	0,0035123101
2	0	0	0	0	4573,01	0,774748743	0,774851203	-6,0727038433154381	2	-0,179022998	0,00470544165
2	0	0	1	0	4579,66	0,708242536	0,708268285	-7,6255414461096358	2	-0,224935189	0,00540092913
2	0	0	0	0	4586,31	0,641736269	0,642086327	-8,7280537337064742	2	-0,279426694	0,00560416374
2	0	0	1	0	4592,96	0,575230122	0,575413167	-9,9454681749145382	2	-0,34140113	0,00572275324
2	0	0	0	0	4599,65	0,508424103	0,508590341	-11,100809851399134	2	-0,411830992	0,00564576453
2	1	0	1	0	4606,22	0,557328463	0,557689786	-9,1642025088270605	2	-0,479446292	0,00511078211
2	1	0	0	0	4612,87	0,62383461	0,624102294	-7,220780581235872	2	-0,533687651	0,00450650556
2	1	0	1	0	4619,52	0,690340877	0,690615058	-5,6587410072485734	2	-0,576335788	0,0039080116
2	1	0	0	0	4626,21	0,75724709	0,757408559	-4,3858970887959072	2	-0,609773576	0,0033219161
2	1	0	1	0	4632,86	0,823753178	0,823821008	-3,3294640854001043	2	-0,635320127	0,00274288235
2	1	0	0	0	4639,51	0,890259504	0,890434027	-2,4539376876006429	2	-0,654460371	0,00218506972
2	1	0	1	0	4646,16	0,956765652	0,957036912	-1,7260206478337459	2	-0,668285668	0,00165186543
2	1	0	1	0	4652,81	1,02327168	1,02341938	-1,125058869831264	2	-0,677702487	0,00115140702
2	1	0	0	0	4659,46	1,08977807	1,09017277	-0,62872598459944307	2	-0,683471203	0,000685419946
2	1	0	1	0	4666,15	1,15668428	1,15693617	-0,22590618906542659	2	-0,686278462	0,000261359033
2	1	0	0	0	4672,84	1,22359049	1,22376978	0,093491889749808998	2	-0,686675251	0,000114412549
2	1	0	1	0	4679,53	1,29049683	1,29105437	0,3500386964684985	2	-0,68516022	0,000451918982
2	1	0	0	0	4686,18	1,35700297	1,35713601	0,56613910229255859	2	-0,682093263	0,000768327736
2	1	0	1	0	4692,83	1,42350912	1,42395961	0,76183183491229926	2	-0,677665174	0,00108481781
2	1	0	0	0	4699,49	1,49001539	1,49041224	0,95151039430250611	2	-0,671962976	0,0014181427
2	1	0	1	0	4706,18	1,55692184	1,55737603	1,1486635984232016	2	-0,664936662	0,00178890117
2	1	0	1	0	4712,83	1,62342787	1,62364817	1,3578541393702181	2	-0,656607926	0,00220467732
2	1	0	0	0	4719,48	1,68993413	1,69007063	1,5873850199083498	2	-0,646820664	0,00268279272
2	1	0	1	0	4726,13	1,75644028	1,75663352	1,8417271741976294	2	-0,635429859	0,00323523977
2	1	0	0	0	4732,78	1,82294631	1,82303607	2,119757447391745	2	-0,622268319	0,00386439427
2	1	0	1	0	4739,43	1,8894527	1,88963914	2,4252348709851504	2	-0,607163966	0,0045828186
2	1	0	0	0	4746,08	1,95595872	1,9562521	2,7512314772854259	2	-0,589963317	0,00538210245
2	1	0	1	0	4752,73	2,02246499	2,02253437	3,0936215327431814	2	-0,570531785	0,00625695568
2	1	0	0	0	4759,38	2,08897114	2,08919716	3,4160114241143021	2	-0,548865497	0,00713672116
2	1	0	1	0	4766,03	2,15547729	2,15568018	3,661196809262023	2	-0,525251508	0,00789236929
2	1	0	1	0	4772,68	2,22198296	2,2220006	3,6958632510090029	2	-0,500604868	0,00821221061
2	1	0	0	0	4779,33	2,28848958	2,28896618	3,3458283344904557	2	-0,476945132	0,00765848812
2	1	0	1	0	4785,98	2,35499597	2,35522842	2,5183812777201312	2	-0,457131475	0,00593136298
2	1	0	0	0	4792,63	2,42150211	2,42164087	1,6450113449245619	2	-0,443797231	0,00398362661
2	1	0	1	0	4799,28	2,4880085	2,4881537	1,6394603860874925	2	-0,433115304	0,0040792292
2	1	0	0	0	4805,94	2,55451465	2,55471659	1,8965597252050966	2	-0,421445131	0,00484517263
2	1	0	1	0	4812,59	2,62102079	2,6212194	2,2993295211344941	2	-0,407555729	0,00602704706
2	1	0	0	0	4819,24	2,68752718	2,68792248	2,7700560837984086	2	-0,39069739	0,00744569581
2	1	0	1	0	4825,89	2,75403333	2,75411439	3,2022033209602086	2	-0,370788276	0,00881923456
2	1	0	0	0	4832,54	2,82054043	2,82063794	3,5231940426213274	2	-0,348339945	0,00993765518
2	1	0	0	0	4839,19	2,88704562	2,88709998	3,6942021672924346	2	-0,324249953	0,0106655313
2	1	0	1	0	4845,84	2,95355201	2,95373273	3,718807832648352	2	-0,299518943	0,010984364
2	1	0	0	0	4852,49	3,02005816	3,02004528	3,6253911294042995	2	-0,275037497	0,0109488452
2	1	0	1	0	4859,14	3,0865643	3,08669829	3,4518553266922611	2	-0,251472682	0,010654836
2	1	0	0	0	4865,79	3,15307021	3,15313077	3,2172478698194029	2	-0,229252622	0,0101444032
2	1	0	1	0	4872,44	3,21957636	3,21987414	2,8815727153172058	2	-0,208900601	0,00927830115
2	1	0	0	0	4879,09	3,28608298	3,28637695	2,4077143066873107	2	-0,191242665	0,00791265722
2	1	0	1	0	4885,74	3,35258913	3,35258865	1,8923653631160634	2	-0,176987424	0,00634432258
2	1	0	1	0	4892,39	3,41909528	3,41929197	1,5501052100832221	2	-0,16564782	0,00530026248
2	1	0	0	0	4899,04	3,48560119	3,48567462	1,3695112780357378	2	-0,1560072	0,00477367081
2	1	0	1	0	4905,69	3,55210781	3,55238748	1,2884118168925269	2	-0,147210911	0,00457693823
2	1	0	0	0	4912,35	3,61861396	3,6190207	1,2777142953127587	2	-0,138709247	0,00462407432
2	1	0	1	0	4919,00	3,68512011	3,68545341	1,3191768241425307	2	-0,13008745	0,00486176461
2	1	0	0	0	4925,65	3,75162601	3,7518661	1,3778132107108805	2	-0,121118806	0,00516937068
2	1	0	1	0	4932,30	3,81813264	3,81824851	1,4583645053207821	2	-0,111701086	0,00556839816
2	1	0	0	0	4938,95	3,88463879	3,88482118	1,5785414104660323	2	-0,101626113	0,00613235123
2	1	0	1	0	4945,60	3,95114493	3,95129395	1,7570689183970282	2	-0,0905691385	0,00694269594
2	1	0	1	0	4952,25	4,01765156	4,01780796	2,0233819892897174	2	-0,0780536383	0,00812956039
2	1	0	0	0	4958,90	4,08415747	4,08440971	2,4185029876728842	2	-0,063350834	0,00987815671
2	1	0	1	0	4965,55	4,15066338	4,15057135	2,9489335386703386	2	-0,0455669016	0,0122397589
2	0	0	0	1	4972,16	4,1831665	4,18343163	3,0979359932243827	2	-0,0244190451	0,0129600037
2	0	0	1	1	4978,81	4,11666059	4,11679888	2,1099030493448189	2	-0,00725544291	0,00868604612
2	0	0	0	1	4985,46	4,05015421	4,05025625	1,3509064614772797	2	0,00413504289	0,00547151733
2	0	0	1	1	4992,11	3,98364806	3,98363304	0,77763090453421133	2	0,0111119887	0,00309779611
2	0	0	0	1	4998,80	3,91674185	3,91686988	0,36617276204439507	2	0,0148442509	0,00143425108
2	0	0	1	1	5005,45	3,85023522	3,85049725	0,11438125728939941	2	0,0163579769	0,000440424716
2	0	0	1	1	5012,22	3,78252888	3,78279042	-0,034065417820533792	2	0,0165816303	0,000128862332
2	0	0	0	1	5018,92	3,71562266	3,71568704	-0,12859080355459218	2	0,0160141364	0,000477803173
2	0	0	1	1	5025,57	3,64911652	3,64921451	-0,20019336696714208	2	0,0149085214	0,00073054852
2	0	0	0	1	5032,22	3,58261037	3,5829525	-0,25890744213635709	2	0,0133724445	0,000927653047
2	0	0	1	1	5038,87	3,51610398	3,51631975	-0,3080768187840777	2	0,0114776688	0,00108329661
2	0	0	0	1	5045,52	3,44959784	3,44976687	-0,34859767835587238	2	0,00928465649	0,00120258075
2	0	0	1	1	5052,17	3,38309169	3,38342428	-0,38146233092993408	2	0,0068483674	0,00129064894
2	0	0	0	1	5058,82	3,31658554	3,31674099	-0,40682311697552717	2	0,00421971222	0,00134932692
2	0	0	1	1	5065,47	3,25007915	3,25030851	-0,42551691659415878	2	0,00144546235	0,00138306129
2	0	0	0	1	5072,12	3,18357301	3,18398619	-0,43837044663403546	2	-0,00143299135	0,00139576546
2	0	0	0	1	5078,77	3,1170671	3,11726332	-0,44699417442704269	2	-0,00438266527	0,0013933985
2	0	0	1	1	5080,14	3,10326648	3,10351992	-0,44968426227569581	2	-0,00499847904	0,00139560411