File: Experimentelles/Rohdaten/Batteriemessungen/AlteZelle/Studenten_Batterietests/Sonstige/ZView-Export/LiCoO2 vs Li_02_CV_C01_loop9.txt
EC-Lab ASCII FILE
Nb header lines : 3
mode	ox/red	error	control changes	counter inc.	time/s	control/V	Ewe/V	<I>/mA	cycle number	(Q-Qo)/C	P/W
2	0	0	1	0	9761,05	3,10516667	3,1059258	-0,91768693923950195	10	0	0,00285026757
2	0	0	0	0	9766,93	3,04636073	3,04675078	-0,74173747111732877	10	-0,00449322956	0,00225988915
2	0	0	1	0	9772,83	2,98735499	2,98745537	-0,71352877421304589	10	-0,00878691953	0,00213163532
2	0	0	1	0	9778,73	2,92834973	2,92868185	-0,69027472512430682	10	-0,0129300132	0,00202159514
2	0	0	0	0	9784,63	2,869344	2,86956692	-0,67256433035557645	10	-0,0169513449	0,00192996836
2	0	0	1	0	9790,53	2,8103385	2,81041217	-0,65860837372020109	10	-0,0208800491	0,00185096101
2	0	0	0	0	9796,43	2,751333	2,75151801	-0,64796506349618086	10	-0,0247358717	0,0017828875
2	0	0	1	0	9802,33	2,69232774	2,69252396	-0,63977221352979546	10	-0,0285360496	0,00172260206
2	0	0	1	0	9808,23	2,633322	2,63349938	-0,63379198250671283	10	-0,0322959684	0,00166909082
2	0	0	0	0	9814,13	2,5743165	2,5747354	-0,6290165976000352	10	-0,0360251032	0,00161955133
2	0	0	1	0	9820,03	2,515311	2,51554084	-0,62363927935560333	10	-0,0397250429	0,00156879006
2	0	0	0	0	9825,93	2,4563055	2,45650625	-0,61595164456715072	10	-0,0433875024	0,00151308905
2	0	0	0	0	9831,83	2,39729977	2,39757204	-0,6026067341056969	10	-0,046988856	0,00144479307
2	0	0	1	0	9837,73	2,33829427	2,33838725	-0,58155568223446605	10	-0,050489869	0,00135990244
2	0	0	0	0	9843,63	2,27928901	2,27983379	-0,55257029365748166	10	-0,053842172	0,00125976838
2	0	0	1	0	9849,54	2,22028351	2,22047877	-0,51896990509703757	10	-0,0570062101	0,00115236163
2	0	0	1	0	9855,44	2,16127801	2,16146421	-0,48628156119957658	10	-0,0599730574	0,00105108018
2	0	0	0	0	9861,34	2,10227251	2,10260034	-0,45971597156797818	10	-0,0627642125	0,000966598978
2	0	0	1	0	9867,24	2,04326701	2,04358578	-0,44041818752884954	10	-0,0654198974	0,000900032348
2	0	0	0	0	9873,14	1,98426151	1,98457146	-0,42875631091495328	10	-0,06798511	0,000850897515
2	0	0	0	0	9879,04	1,92525601	1,92559707	-0,42352649740253933	10	-0,0704999194	0,000815541367
2	0	0	1	0	9884,94	1,8662504	1,86652243	-0,42217714774112026	10	-0,0729974732	0,00078800309
2	0	0	0	0	9890,84	1,80724502	1,80756831	-0,42569618175427238	10	-0,0755009353	0,000769474951
2	0	0	1	0	9896,74	1,7482394	1,74846363	-0,43255291661868435	10	-0,0780341551	0,000756303023
2	0	0	1	0	9902,64	1,6892339	1,68965971	-0,44250659225508659	10	-0,0806181952	0,000747685554
2	0	0	0	0	9908,54	1,63022828	1,63052487	-0,4534061026448999	10	-0,0832658485	0,000739289913
2	0	0	1	0	9914,44	1,5712229	1,57148051	-0,46587504974256077	10	-0,0859820247	0,000732113549
2	0	0	0	0	9920,34	1,51221752	1,51243603	-0,48332832117254656	10	-0,0887845531	0,00073100318
2	0	0	0	0	9926,24	1,4532119	1,45346177	-0,50586802667627853	10	-0,0917035118	0,000735259848
2	0	0	1	0	9932,14	1,39420652	1,3942169	-0,5376032376661897	10	-0,0947806686	0,000749535509
2	0	0	0	0	9938,04	1,33520103	1,33533263	-0,5824859552085417	10	-0,0980791599	0,0007778125
2	0	0	1	0	9943,94	1,27619541	1,27644861	-0,64981549326330509	10	-0,101704858	0,000829456083
2	0	0	1	0	9949,84	1,21718979	1,21771491	-0,74439372308552448	10	-0,1058091	0,000906459347
2	0	0	0	0	9955,74	1,15818441	1,15860009	-0,86087468545883891	10	-0,110541597	0,000997409457
2	0	0	1	0	9961,65	1,09917891	1,09948552	-0,99251983966678387	10	-0,116008505	0,00109126116
2	0	0	0	0	9967,59	1,03977334	1,04009032	-1,1431782043849435	10	-0,122341454	0,00118900859
2	1	0	1	0	9973,45	1,01877141	1,01885831	-1,0004065170263283	10	-0,129208773	0,00101927249
2	1	0	0	0	9979,35	1,07777691	1,07793283	-0,61295164624849984	10	-0,13384825	0,000660720689
2	1	0	1	0	9985,29	1,13718247	1,13763893	-0,3939362848177552	10	-0,136774734	0,000448157254
2	1	0	0	0	9991,19	1,19618797	1,19647288	-0,2614669722970584	10	-0,138673678	0,00031283815
2	1	0	0	0	9997,09	1,25519335	1,25552738	-0,17379012397335213	10	-0,139936507	0,000218198256
2	1	0	1	0	10002,99	1,31419897	1,314592	-0,1113115016681453	10	-0,1407637	0,000146329214
2	1	0	0	0	10008,89	1,37320447	1,37330568	-0,064522386218110733	10	-0,14127247	8,8608962E-005
2	1	0	1	0	10014,83	1,43260992	1,43273103	-0,027794636242712557	10	-0,141538098	3,98222364E-005
2	1	0	1	0	10020,77	1,4920156	1,49218655	0,0036726999448243661	10	-0,141604424	5,48035359E-006
2	1	0	0	0	10026,71	1,55142117	1,55170214	0,029734296811511699	10	-0,141501904	4,61387717E-005
2	1	0	1	0	10032,61	1,61042655	1,6108067	0,054308866984986822	10	-0,141250119	8,74810867E-005
2	1	0	0	0	10038,51	1,66943192	1,66965067	0,07826756798507017	10	-0,140855983	0,000130679502
2	1	0	0	0	10044,45	1,72883773	1,72909606	0,10246836207807064	10	-0,140315518	0,000177177644
2	1	0	1	0	10050,35	1,78784311	1,78818083	0,12737447232939302	10	-0,139633551	0,000227768585
2	1	0	0	0	10056,25	1,84684861	1,84703481	0,15276389351735542	10	-0,138803378	0,000282160239
2	1	0	1	0	10062,16	1,90585423	1,90612948	0,17727342344975661	10	-0,137824669	0,000337906095
2	1	0	1	0	10068,06	1,9648596	1,9652642	0,20049047920231987	10	-0,136705071	0,000394016766
2	1	0	0	0	10073,96	2,02386522	2,02378726	0,2202844702017801	10	-0,135459259	0,000445808895
2	1	0	1	0	10079,86	2,08287048	2,08309245	0,23696612357161939	10	-0,134105891	0,000493622327
2	1	0	0	0	10085,76	2,14187622	2,1421268	0,25034829586123354	10	-0,13266398	0,000536277774
2	1	0	0	0	10091,66	2,20088053	2,20123219	0,26102696706419514	10	-0,131149456	0,000574580976
2	1	0	1	0	10097,56	2,25988722	2,26023579	0,27023541810922323	10	-0,129576981	0,000610795745
2	1	0	0	0	10103,46	2,31889248	2,31914997	0,27714751288294614	10	-0,127957568	0,000642746629
2	1	0	1	0	10109,36	2,37789822	2,37806439	0,28310121052587878	10	-0,12630114	0,000673232891
2	1	0	0	0	10115,26	2,43690348	2,43710876	0,28828265878061331	10	-0,124612734	0,000702576188
2	1	0	0	0	10121,16	2,49590921	2,49621344	0,29293808923102829	10	-0,122895323	0,00073123601
2	1	0	1	0	10127,06	2,55491471	2,55524755	0,29776393932600832	10	-0,121150598	0,000760860567
2	1	0	0	0	10132,96	2,61392021	2,61437249	0,30333715444430643	10	-0,1193747	0,000793036306
2	1	0	1	0	10138,86	2,67292571	2,67299581	0,31153306695943117	10	-0,117558897	0,000832726597
2	1	0	1	0	10144,76	2,73193121	2,7318399	0,32320309740801536	10	-0,115684509	0,000882939145
2	1	0	0	0	10150,66	2,79093671	2,79119515	0,33914250678693139	10	-0,113729879	0,000946612912
2	1	0	1	0	10156,56	2,84994221	2,85017943	0,36635077488608614	10	-0,111654282	0,00104416546
2	1	0	0	0	10162,46	2,90894771	2,90941453	0,39719808381050758	10	-0,109390594	0,00115561392
2	1	0	0	0	10168,37	2,96795344	2,96846914	0,42193095556770733	10	-0,106973983	0,00125248905
2	1	0	1	0	10174,27	3,0269587	3,02726269	0,4546510783645017	10	-0,10438817	0,0013763482
2	1	0	0	0	10180,17	3,0859642	3,08606696	0,4937080539142089	10	-0,101591423	0,00152361614
2	1	0	1	0	10186,07	3,1449697	3,14507103	0,54140649394442522	10	-0,0985379964	0,00170276186
2	1	0	1	0	10191,97	3,20397496	3,20414543	0,59670792768398682	10	-0,0951797813	0,00191193901
2	1	0	0	0	10197,87	3,26298046	3,26310015	0,65538436779752422	10	-0,0914812908	0,00213858485
2	1	0	1	0	10203,77	3,3219862	3,32195401	0,71113084629177958	10	-0,0874424279	0,00236234395
2	1	0	0	0	10209,67	3,38099146	3,38118887	0,75706033889825267	10	-0,0831028223	0,00255976408
2	1	0	1	0	10215,57	3,43999767	3,44048476	0,7949890463479497	10	-0,0785186887	0,00273514772
2	1	0	1	0	10221,47	3,4990027	3,49916768	0,83179907780140378	10	-0,073718667	0,00291060447
2	1	0	0	0	10227,37	3,55800819	3,55820203	0,87719949769476634	10	-0,0686785728	0,0031212531
2	1	0	1	0	10233,27	3,61701345	3,61708617	0,93822042457759027	10	-0,0633262321	0,00339362421
2	1	0	1	0	10239,20	3,67631865	3,67645216	1,0142986426908749	10	-0,0575425625	0,00372902048
2	1	0	0	0	10245,10	3,73532462	3,73535562	1,1062575221682565	10	-0,0512893908	0,00413226523
2	1	0	1	0	10251,00	3,79433036	3,79450059	1,2155304104089718	10	-0,0444437042	0,00461233081
2	1	0	0	0	10256,90	3,85333586	3,85351467	1,3413914628326875	10	-0,0369035192	0,00516907172
2	1	0	1	0	10262,80	3,91234112	3,91219854	1,484613442483047	10	-0,0285704639	0,00580810243
2	1	0	1	0	10268,70	3,97134662	3,97138286	1,6529914401471616	10	-0,019327376	0,00656466186
2	1	0	0	0	10274,61	4,03035212	4,03063774	1,8664564235756771	10	-0,00896568224	0,00752300955
2	1	0	1	0	10280,51	4,08935785	4,08948183	2,1414410471916198	10	0,00283102086	0,00875738449
2	1	0	0	0	10286,41	4,14836359	4,14841652	2,4963388709972368	10	0,0164743438	0,0103558535
2	0	0	0	1	10292,25	4,19316721	4,19340611	2,725793755302817	10	0,0322474428	0,0114303604
2	0	0	1	1	10298,15	4,13416195	4,13424158	1,843733142440513	10	0,0455708131	0,00762243802
2	0	0	0	1	10304,05	4,07515621	4,07528734	1,192147744198639	10	0,0544330589	0,00485834479
2	0	0	1	1	10309,95	4,01615047	4,01618242	0,69859828239814272	10	0,0599367917	0,0028056982
2	0	0	1	1	10315,89	3,95674539	3,95686769	0,32229158973010906	10	0,0629104003	0,00127526512
2	0	0	0	1	10321,83	3,89734006	3,89737225	0,039463742325703155	10	0,0639414415	0,000153804896
2	0	0	1	1	10327,77	3,83793449	3,83822727	-0,17758576044191933	10	0,0635013059	0,000681614503
2	0	0	0	1	10333,67	3,77892876	3,77913284	-0,35146784192572064	10	0,0619184189	0,00132824364
2	0	0	0	1	10339,57	3,7199235	3,72013855	-0,49752981991817792	10	0,059397772	0,00185087987
2	0	0	1	1	10345,47	3,66091752	3,66098356	-0,6252193901066985	10	0,0560716242	0,00228891801
2	0	0	0	1	10351,37	3,60191226	3,60228968	-0,73598027834668621	10	0,0520429835	0,00265121413
2	0	0	1	1	10357,27	3,54290676	3,54318523	-0,82619251403957965	10	0,0474181026	0,00292735314
2	0	0	1	1	10363,17	3,48390031	3,48396945	-0,89242833127108672	10	0,0423301943	0,00310919294
2	0	0	0	1	10369,07	3,42489576	3,42512631	-0,93001983687281792	10	0,0369363539	0,00318543543
2	0	0	1	1	10374,98	3,36589026	3,36595178	-0,94024985345701491	10	0,0314034969	0,00316483574
2	0	0	0	1	10380,88	3,30688453	3,30691695	-0,92705877001086989	10	0,0258825645	0,00306570646
2	0	0	0	1	10386,78	3,24787879	3,24815607	-0,89732282505655731	10	0,0204907507	0,00291464454
2	0	0	1	1	10392,68	3,18887377	3,18910885	-0,85967154956112781	10	0,0153002404	0,00274158618
2	0	0	0	1	10398,58	3,12986803	3,13000417	-0,81934539042413056	10	0,0103427209	0,00256455457
2	0	0	1	1	10400,98	3,10576653	3,1061666	-0,80412873396506867	10	0,00838996656	0,00249775779