File: Experimentelles/Rohdaten/Batteriemessungen/AlteZelle/Studenten_Batterietests/Sonstige/ZView-Export/LiCoO2 vs Li_02_CV_C01_loop2.txt
EC-Lab ASCII FILE
Nb header lines : 3
mode	ox/red	error	control changes	counter inc.	time/s	control/V	Ewe/V	<I>/mA	cycle number	(Q-Qo)/C	P/W
2	0	0	1	0	5080,32	3,10296631	3,10327935	-0,52487051486968992	3	0	0,00162881985
2	0	0	0	0	5086,95	3,03665972	3,03680634	-0,45190830761566758	3	-0,00299610849	0,00137235806
2	0	0	1	0	5093,60	2,97015309	2,97023249	-0,45721110923620858	3	-0,00602334738	0,00135802326
2	0	0	1	0	5100,25	2,90364718	2,90391088	-0,46135250028843686	3	-0,00908194203	0,0013397265
2	0	0	0	0	5106,90	2,83714104	2,83741832	-0,46563314708570758	3	-0,0121690948	0,00132119597
2	0	0	1	0	5113,55	2,77063489	2,77079535	-0,46966089696312883	3	-0,0152829075	0,00130133424
2	0	0	0	0	5120,20	2,70412874	2,7043426	-0,47338394479205357	3	-0,0184224397	0,0012801924
2	0	0	1	0	5126,85	2,63762259	2,63795018	-0,47747316273550221	3	-0,0215880014	0,00125955045
2	0	0	0	0	5133,50	2,57111621	2,57150769	-0,48078085109591482	3	-0,0247777496	0,00123633165
2	0	0	1	0	5140,15	2,50461006	2,50485444	-0,4828148681360007	3	-0,02798599	0,00120938092
2	0	0	0	0	5146,80	2,43810368	2,43836164	-0,48193033070613997	3	-0,0311986264	0,00117512047
2	0	0	0	0	5153,45	2,37159705	2,37196994	-0,47690559911535501	3	-0,0343935527	0,0011312057
2	0	0	1	0	5160,10	2,30509138	2,30519581	-0,46688308473676531	3	-0,0375384241	0,00107625697
2	0	0	0	0	5166,75	2,23858523	2,23895383	-0,4514331996130441	3	-0,0405977778	0,00101073808
2	0	0	1	0	5173,40	2,17207909	2,17233062	-0,4331589258896775	3	-0,043543648	0,000940964383
2	0	0	0	0	5180,05	2,10557294	2,10582781	-0,41486783729245325	3	-0,0463666692	0,000873640238
2	0	0	1	0	5186,71	2,03906655	2,0392251	-0,39985143424322221	3	-0,0490778312	0,000815387059
2	0	0	0	0	5193,36	1,97256029	1,9728626	-0,38945069645221018	3	-0,0517031997	0,000768332742
2	0	0	1	0	5200,01	1,90605426	1,90626979	-0,38502269641806739	3	-0,0542783551	0,00073395716
2	0	0	0	0	5206,66	1,83954787	1,83979714	-0,38574395072646528	3	-0,0568424165	0,000709690619
2	0	0	1	0	5213,31	1,77304184	1,77307379	-0,39245964602256576	3	-0,0594317354	0,000695859897
2	0	0	1	0	5219,96	1,70653546	1,70685172	-0,40481681423261939	3	-0,0620845705	0,000690962304
2	0	0	0	0	5226,61	1,64002943	1,64025891	-0,42036727784822413	3	-0,0648324564	0,000689511187
2	0	0	1	0	5233,26	1,57352328	1,57373595	-0,43909706609944621	3	-0,0676917508	0,00069102284
2	0	0	0	0	5239,91	1,50701702	1,50722325	-0,46274418476969184	3	-0,0706916451	0,000697458803
2	0	0	1	0	5246,56	1,44051075	1,44080079	-0,49553383809204019	3	-0,0738784075	0,000713965565
2	0	0	0	0	5253,21	1,3740046	1,37424791	-0,53944329777732672	3	-0,0773179978	0,000741328811
2	0	0	1	0	5259,86	1,30749834	1,30784535	-0,60187400101373709	3	-0,0811052546	0,000787158089
2	0	0	0	0	5266,51	1,24099207	1,24119222	-0,69347857388978266	3	-0,0853968933	0,000860740198
2	0	0	1	0	5273,16	1,17448592	1,17486	-0,82009168962637875	3	-0,0904147625	0,000963492901
2	0	0	0	0	5279,81	1,10797977	1,10817671	-0,98625547811389146	3	-0,0964031816	0,00109294534
2	0	0	0	0	5286,50	1,04107344	1,04131317	-1,2186425629382338	3	-0,103725187	0,00126898859
2	0	0	1	0	5293,16	0,974567413	0,975111187	-1,6362715965757818	3	-0,113061547	0,00159554672
2	0	0	0	0	5299,81	0,908061206	0,908387959	-2,4517298216621094	3	-0,126396582	0,00222712196
2	0	0	1	0	5306,46	0,84155488	0,841564357	-3,7484836988151142	3	-0,146753892	0,00315459026
2	0	0	0	0	5313,11	0,775048733	0,77527225	-5,5144230375687187	3	-0,177451119	0,004275179
2	0	0	1	0	5319,76	0,708542526	0,708649158	-7,1665766860048166	3	-0,219774827	0,00507858861
2	0	0	0	0	5326,41	0,642036319	0,642296851	-8,5093222583333837	3	-0,272106141	0,00546551077
2	0	0	1	0	5333,06	0,575530112	0,575814128	-9,6218946327765594	3	-0,332437217	0,0055404231
2	0	0	0	0	5339,74	0,508724332	0,509001613	-10,764934588325194	3	-0,400563389	0,00547936885
2	1	0	0	0	5346,34	0,557328463	0,557669759	-8,9831979150573606	3	-0,466845661	0,0050096577
2	1	0	1	0	5352,99	0,62383461	0,624052167	-7,0911083643634957	3	-0,520111859	0,00442522159
2	1	0	0	0	5359,64	0,690340877	0,690474689	-5,519191818932711	3	-0,561877787	0,00381086231
2	1	0	1	0	5366,33	0,75724709	0,757328272	-4,2285602663954054	3	-0,59435147	0,00320240832
2	1	0	0	0	5372,98	0,823753178	0,823971391	-3,1574175407489094	3	-0,618794262	0,00260162167
2	1	0	1	0	5379,63	0,890259504	0,890594423	-2,2770404014736413	3	-0,636763692	0,00202791952
2	1	0	0	0	5386,28	0,956765652	0,957006931	-1,5618046637003626	3	-0,6494326	0,00149465783
2	1	0	0	0	5392,94	1,02327168	1,02351964	-0,99296981872369907	3	-0,657847524	0,00101632415
2	1	0	1	0	5399,59	1,08977807	1,09001231	-0,54043243747825363	3	-0,662881851	0,000589078001
2	1	0	0	0	5406,28	1,15668428	1,15714669	-0,18167485300606755	3	-0,665246904	0,000210224462
2	1	0	1	0	5413,01	1,22399056	1,22427082	0,10168709792196707	3	-0,665474772	0,000124492552
2	1	0	0	0	5419,66	1,29049683	1,2907536	0,32764368442197702	3	-0,664019883	0,000422907266
2	1	0	1	0	5426,31	1,35700297	1,35744679	0,52126966478923718	3	-0,661179781	0,000707595842
2	1	0	0	0	5432,96	1,42350912	1,42373908	0,69979433032373709	3	-0,657110095	0,000996324583
2	1	0	1	0	5439,61	1,49001539	1,49043226	0,87582488389064755	3	-0,651868343	0,00130535767
2	1	0	1	0	5446,29	1,55682254	1,55709672	1,0614798796621158	3	-0,645400822	0,00165282679
2	1	0	0	0	5452,94	1,62332773	1,62376845	1,2602973853548355	3	-0,637687624	0,00204643118
2	1	0	1	0	5459,59	1,68983412	1,6901809	1,4786453178773296	3	-0,628588915	0,00249917805
2	1	0	0	0	5466,24	1,75634027	1,75667357	1,7206620915482419	3	-0,617958665	0,00302264164
2	1	0	1	0	5472,89	1,82284653	1,82304597	1,9881330070396253	3	-0,605638146	0,00362445787
2	1	0	0	0	5479,54	1,88935268	1,88937831	2,2812833103040832	3	-0,591447651	0,00431020698
2	1	0	1	0	5486,19	1,95585871	1,95624208	2,6004749226073328	3	-0,575222015	0,00508715864
2	1	0	0	0	5492,84	2,02236509	2,02240396	2,932039350271225	3	-0,556824148	0,00592976809
2	1	0	1	0	5499,49	2,088871	2,08917737	3,2616289245585645	3	-0,536218286	0,00681412127
2	1	0	0	0	5506,15	2,15537739	2,15541935	3,5504084415733741	3	-0,513513625	0,00765261892
2	1	0	0	0	5512,80	2,22188354	2,22218275	3,702100824564695	3	-0,489272982	0,00822674483
2	1	0	1	0	5519,45	2,28838992	2,28863525	3,5465276613831411	3	-0,464958161	0,00811670814
2	1	0	0	0	5526,10	2,35489607	2,35504818	2,916205576310553	3	-0,443192244	0,00686780456
2	1	0	1	0	5532,75	2,42140222	2,42157078	1,8640251606702768	3	-0,427287221	0,00451386906
2	1	0	0	0	5539,40	2,48790836	2,48817372	1,5764101035892963	3	-0,416301638	0,00392238237
2	1	0	1	0	5546,05	2,55441475	2,55463624	1,7405457155158112	3	-0,405400097	0,00444646133
2	1	0	0	0	5552,70	2,6209209	2,62129951	2,0939657917867152	3	-0,392726094	0,00548891164
2	1	0	1	0	5559,35	2,68742704	2,68772221	2,5289290839185341	3	-0,377361	0,00679705897
2	1	0	0	0	5566,00	2,75393319	2,75419474	2,9355423928548986	3	-0,359150529	0,00808505528
2	1	0	0	0	5572,65	2,8204391	2,82064605	3,2441824624111034	3	-0,338532656	0,0091506904
2	1	0	1	0	5579,30	2,88694572	2,88715005	3,4301751554012301	3	-0,316270053	0,00990343001
2	1	0	0	0	5585,95	2,95345187	2,95362282	3,4860328199962822	3	-0,293198675	0,0102964258
2	1	0	1	0	5592,60	3,01995802	3,02006531	3,4199190661311149	3	-0,270170838	0,0103283785
2	1	0	0	0	5599,25	3,08646441	3,08661819	3,2650626699129645	3	-0,247894853	0,0100780018
2	1	0	1	0	5605,90	3,15297055	3,15304041	3,0528321086118611	3	-0,226857007	0,0096257031
2	1	0	0	0	5612,56	3,2194767	3,21983385	2,7934834907452256	3	-0,207363218	0,00899455231
2	1	0	1	0	5619,21	3,28598261	3,28606582	2,4592956844717194	3	-0,189855933	0,00808140729
2	1	0	0	0	5625,86	3,35248899	3,35277963	2,0668988841455728	3	-0,174790695	0,00692985626
2	1	0	0	0	5632,51	3,41899538	3,4192822	1,7294199646761027	3	-0,162220672	0,00591337495
2	1	0	1	0	5639,16	3,48550153	3,48542404	1,5157022116084883	3	-0,151492804	0,00528286491
2	1	0	0	0	5645,81	3,55200768	3,55243778	1,4022221323102712	3	-0,141834944	0,00498130685
2	1	0	1	0	5652,46	3,61851358	3,61862993	1,3610490985835568	3	-0,132681161	0,00492513319
2	1	0	0	0	5659,11	3,68502021	3,68518305	1,3780388946955426	3	-0,12359371	0,00507832551
2	1	0	1	0	5665,76	3,75152636	3,75167561	1,4206094897041694	3	-0,11428941	0,00532966619
2	1	0	0	0	5672,41	3,8180325	3,81817842	1,4781768101577965	3	-0,104657888	0,00564394286
2	1	0	1	0	5679,06	3,88453841	3,88470125	1,566536940634247	3	-0,094549574	0,00608552806
2	1	0	0	0	5685,71	3,95104504	3,95135427	1,6944668882836922	3	-0,0837289244	0,00669543911
2	1	0	1	0	5692,36	4,01754999	4,01765537	1,8811267079521555	3	-0,0718728602	0,00755771901
2	1	0	1	0	5699,01	4,08405733	4,0841794	2,154289451738201	3	-0,0585024543	0,00879850425
2	1	0	0	0	5705,66	4,15056372	4,15061188	2,5276590983072893	3	-0,0429858826	0,010491332
2	0	0	1	1	5712,24	4,18366623	4,18399334	2,5825831859062144	3	-0,0252413712	0,0108055109
2	0	0	0	1	5718,89	4,11716032	4,11748075	1,7471641904364006	3	-0,0109994765	0,00719391508
2	0	0	1	1	5725,54	4,05065441	4,05057669	1,1319666743899362	3	-0,00153278408	0,00458511803
2	0	0	0	1	5732,19	3,98414803	3,98420453	0,68167232318470822	3	0,00441174069	0,00271592196
2	0	0	1	1	5738,88	3,91724181	3,91733074	0,36096325648638029	3	0,00782613084	0,00141401251
2	0	0	0	1	5745,53	3,85073566	3,85096836	0,15660542564000912	3	0,00948794186	0,000603082532
2	0	0	1	1	5752,22	3,78382945	3,78404474	0,024274451711486662	3	0,0100597702	9,18556107E-005
2	0	0	0	1	5758,95	3,71652389	3,71654987	-0,071414826489661466	3	0,00988400076	0,000265416777
2	0	0	0	1	5765,64	3,64961648	3,64962578	-0,14746043233511408	3	0,00914055668	0,000538175402
2	0	0	1	1	5772,29	3,58311033	3,58335376	-0,21190289555428032	3	0,00793636311	0,000759323011
2	0	0	0	1	5778,94	3,51660419	3,51690125	-0,26641448393153587	3	0,00633695163	0,000936953409
2	0	0	1	1	5785,59	3,45009804	3,45042825	-0,3130293425638233	3	0,00440072594	0,00108008529
2	0	0	0	1	5792,24	3,38359165	3,3835845	-0,35198578230726298	3	0,00218181312	0,00119097368
2	0	0	1	1	5798,89	3,3170855	3,31719208	-0,38335944168890637	3	-0,000270117685	0,00127167685
2	0	0	0	1	5805,54	3,25057936	3,25069976	-0,40855418735494278	3	-0,00290937419	0,00132808695
2	0	0	1	1	5812,19	3,18407321	3,18412662	-0,42758149684717318	3	-0,005695967	0,00136147358
2	0	0	1	1	5818,85	3,11756611	3,11757255	-0,44341078708868301	3	-0,00859867223	0,00138236524
2	0	0	0	1	5820,25	3,10356641	3,10400128	-0,44636935773103213	3	-0,00922193937	0,00138553104