File: Experimentelles/Rohdaten/Batteriemessungen/AlteZelle/Studenten_Batterietests/Sonstige/ZView-Export/LiCoO2 vs Li_02_CV_C01_loop3.txt
EC-Lab ASCII FILE
Nb header lines : 3
mode	ox/red	error	control changes	counter inc.	time/s	control/V	Ewe/V	<I>/mA	cycle number	(Q-Qo)/C	P/W
2	0	0	1	0	5820,42	3,10336637	3,10376072	-0,51356321573257446	4	0	0,00159397733
2	0	0	0	0	5827,05	3,03705955	3,03706694	-0,45618837031846304	4	-0,00300037581	0,00138547458
2	0	0	1	0	5833,70	2,97055411	2,97073483	-0,46810720595440538	4	-0,00607743766	0,00139062235
2	0	0	1	0	5840,35	2,90404725	2,90432215	-0,4785245188201479	4	-0,00922846235	0,0013897894
2	0	0	0	0	5847,00	2,8375411	2,83774924	-0,48862411811327002	4	-0,0124484217	0,00138659275
2	0	0	1	0	5853,65	2,77103496	2,77132654	-0,49802409671247181	4	-0,0157333165	0,00138018734
2	0	0	0	0	5860,30	2,70452881	2,70479369	-0,507013869471848	4	-0,0190792289	0,00137136795
2	0	0	1	0	5866,95	2,63802266	2,63841152	-0,51556145679205792	4	-0,0224829502	0,00136026333
2	0	0	0	0	5873,60	2,57151628	2,57175827	-0,52230721215407219	4	-0,0259380247	0,00134324795
2	0	0	1	0	5880,25	2,50501013	2,50529552	-0,52689431592201254	4	-0,0294320993	0,001320026
2	0	0	0	0	5886,90	2,43850374	2,43891287	-0,52665897551923987	4	-0,0329419523	0,00128447532
2	0	0	0	0	5893,55	2,37199664	2,37230992	-0,52021231095214304	4	-0,0364317112	0,00123410486
2	0	0	1	0	5900,20	2,30549145	2,30591774	-0,50579547540595194	4	-0,0398517251	0,00116632273
2	0	0	0	0	5906,85	2,2389853	2,23935485	-0,48415725693727475	4	-0,0431499034	0,00108419987
2	0	0	1	0	5913,50	2,17247915	2,17281222	-0,45840528638412595	4	-0,0462882929	0,000996028655
2	0	0	0	0	5920,15	2,10597301	2,10635948	-0,43362304366504282	4	-0,049257081	0,000913366035
2	0	0	1	0	5926,81	2,03946662	2,03985667	-0,41326125509416122	4	-0,0520738736	0,00084299373
2	0	0	0	0	5933,46	1,97296047	1,9731636	-0,39859185523042842	4	-0,0547733419	0,000786486955
2	0	0	1	0	5940,11	1,90645409	1,90692127	-0,39042330013277683	4	-0,0573960468	0,000744506484
2	0	0	0	0	5946,76	1,83994806	1,83991742	-0,38747519999742598	4	-0,0599839501	0,000712922367
2	0	0	1	0	5953,41	1,77344167	1,77355492	-0,39126944914460179	4	-0,0625749379	0,00069393788
2	0	0	1	0	5960,06	1,70693564	1,70731282	-0,40065851590285709	4	-0,0652092993	0,000684049446
2	0	0	0	0	5966,71	1,6404295	1,64088023	-0,41462678446744896	4	-0,067925334	0,00068035291
2	0	0	1	0	5973,36	1,57392323	1,57419717	-0,43055936818321702	4	-0,070736073	0,000677785312
2	0	0	0	0	5980,01	1,50741708	1,50760424	-0,4520404638412103	4	-0,0736713037	0,000681498146
2	0	0	1	0	5986,66	1,44091082	1,44115174	-0,48303512344136832	4	-0,0767796263	0,000696126895
2	0	0	0	0	5993,31	1,37440467	1,37472916	-0,5258957869373271	4	-0,0801314563	0,000722964294
2	0	0	1	0	5999,96	1,30789828	1,30813611	-0,58845220366493043	4	-0,0838267654	0,000769775594
2	0	0	0	0	6006,61	1,24139225	1,24152315	-0,6808258208135767	4	-0,0880319923	0,000845261035
2	0	0	1	0	6013,26	1,17488599	1,17527103	-0,80872686455647629	4	-0,0929721147	0,000950473244
2	0	0	1	0	6019,91	1,10838008	1,10877872	-0,97111624453166861	4	-0,098876439	0,00107675302
2	0	0	0	0	6026,60	1,04147351	1,04178441	-1,1928044343367202	4	-0,10606613	0,00124264508
2	0	0	1	0	6033,26	0,97496742	0,975502133	-1,6005428669353315	4	-0,115193434	0,00156133296
2	0	0	0	0	6039,91	0,908461213	0,908879161	-2,3863324820995347	4	-0,128226891	0,00216888776
2	0	0	1	0	6046,56	0,841954947	0,842185915	-3,5761036624511053	4	-0,147807106	0,00301174424
2	0	0	0	0	6053,21	0,775448859	0,775582969	-5,1768150093654842	4	-0,176854014	0,00401504943
2	0	0	1	0	6059,86	0,708942592	0,708869755	-6,7032561575373094	4	-0,21644333	0,00475173537
2	0	0	0	0	6066,51	0,642436385	0,642787993	-8,0755356997251584	4	-0,265690565	0,00519085722
2	0	0	1	0	6073,16	0,575930178	0,576315343	-9,3000175456205773	4	-0,323544055	0,00535974279
2	0	0	0	0	6079,84	0,50912416	0,509121001	-10,435230188266963	4	-0,389546454	0,00531279482
2	1	0	1	0	6086,43	0,55682838	0,55695796	-8,720564506948023	4	-0,453779578	0,00485698786
2	1	0	0	0	6093,08	0,623334646	0,623540938	-6,8603415936231757	4	-0,505403519	0,00427770382
2	1	0	1	0	6099,73	0,689840794	0,690143943	-5,3240340451399392	4	-0,54573822	0,00367434975
2	1	0	0	0	6106,42	0,756747067	0,756897271	-4,0538496983548019	4	-0,576964915	0,00306834769
2	1	0	1	0	6113,07	0,823253274	0,823610544	-3,0055105450252704	4	-0,60032022	0,00247537019
2	1	0	0	0	6119,72	0,889759362	0,890093148	-2,1486271917819978	4	-0,617357075	0,00191247836
2	1	0	1	0	6126,37	0,956265628	0,956475616	-1,4615463791415094	4	-0,62926954	0,00139793346
2	1	0	1	0	6133,03	1,02277279	1,02292979	-0,92188996296865306	4	-0,637115359	0,000943028717
2	1	0	0	0	6139,68	1,08927786	1,08971167	-0,49851781704152742	4	-0,641776443	0,000543240691
2	1	0	1	0	6146,37	1,1561842	1,15661526	-0,16583981904356461	4	-0,643951714	0,000191812869
2	1	0	0	0	6153,16	1,22409058	1,22423589	0,09929204394575209	4	-0,644137979	0,000121556885
2	1	0	1	0	6159,83	1,29079688	1,29110444	0,30926700471900403	4	-0,642749667	0,000399295997
2	1	0	0	0	6166,48	1,3573029	1,35757709	0,48934943648055194	4	-0,640077829	0,000664329564
2	1	0	1	0	6173,13	1,42380929	1,4240799	0,65689145059635213	4	-0,636259198	0,000935465912
2	1	0	0	0	6179,78	1,49031544	1,49072289	0,82345389761030758	4	-0,631336153	0,00122754159
2	1	0	1	0	6186,45	1,55702174	1,55724072	0,99916195186476122	4	-0,625260949	0,00155593571
2	1	0	1	0	6193,12	1,62372792	1,62404919	1,1892276111369285	4	-0,617964685	0,00193136418
2	1	0	0	0	6199,77	1,69023395	1,69038153	1,3977758747835942	4	-0,609369218	0,00236277445
2	1	0	1	0	6206,42	1,75674033	1,75689435	1,629679653172687	4	-0,599312425	0,002863175
2	1	0	0	0	6213,07	1,82324648	1,82348728	1,8845131906370262	4	-0,587637007	0,00343638589
2	1	0	1	0	6219,72	1,88975275	1,88996994	2,1657322142273187	4	-0,574179947	0,00409316877
2	1	0	0	0	6226,37	1,95625889	1,95652282	2,4696185657133674	4	-0,558777511	0,00483186496
2	1	0	1	0	6233,02	2,02276492	2,02285504	2,7897665513058493	4	-0,541289389	0,00564329326
2	1	0	0	0	6239,68	2,08927131	2,08947825	3,1129708321144205	4	-0,521651864	0,00650448492
2	1	0	1	0	6246,33	2,15577722	2,15598083	3,4089942959447795	4	-0,499932885	0,00734972628
2	1	0	1	0	6252,98	2,22228408	2,2225945	3,6090748488475469	4	-0,476505995	0,00802151021
2	1	0	0	0	6259,63	2,28878975	2,28922677	3,5682385824620723	4	-0,452445477	0,00816850737
2	1	0	1	0	6266,28	2,35529613	2,35545874	3,1189463548362182	4	-0,429958493	0,00734654954
2	1	0	0	0	6272,93	2,42180228	2,4218514	2,1779271929214374	4	-0,412092179	0,00527461618
2	1	0	1	0	6279,58	2,48830843	2,48831415	1,5938481874763894	4	-0,400116593	0,00396599481
2	1	0	0	0	6286,23	2,55481458	2,55531812	1,645357189079128	4	-0,389519244	0,00420441106
2	1	0	1	0	6292,88	2,62132096	2,62159014	1,9228398377696685	4	-0,377742022	0,00504089799
2	1	0	0	0	6299,53	2,68782711	2,68799281	2,2986887215326205	4	-0,363724828	0,00617885869
2	1	0	1	0	6306,18	2,75433326	2,75435519	2,6650350385655894	4	-0,347184747	0,0073404531
2	1	0	0	0	6312,83	2,82083821	2,8208971	2,952487976495984	4	-0,328451902	0,00832866505
2	1	0	0	0	6319,48	2,88734579	2,88749075	3,1395159165064467	4	-0,308134258	0,00906532351
2	1	0	1	0	6326,13	2,95385194	2,95413399	3,2204524353146483	4	-0,286923915	0,00951364823
2	1	0	0	0	6332,78	3,02035809	3,02026582	3,1950973483423155	4	-0,265530288	0,00965004321
2	1	0	1	0	6339,43	3,08686447	3,08711934	3,0878719575703072	4	-0,24459666	0,00953262951
2	1	0	0	0	6346,09	3,15337014	3,15360188	2,9268731952955322	4	-0,224572018	0,00923019275
2	1	0	1	0	6352,74	3,21987677	3,22004437	2,7279505965610333	4	-0,205734566	0,00878412183
2	1	0	0	0	6359,39	3,28638291	3,28658724	2,4837565782169405	4	-0,188372001	0,00816308241
2	1	0	1	0	6366,04	3,35288906	3,35314965	2,1912288987647875	4	-0,172797814	0,00734751858
2	1	0	1	0	6372,69	3,41939497	3,41978312	1,8964725223680291	4	-0,159225225	0,00648552459
2	1	0	0	0	6379,34	3,48590159	3,48599553	1,661031764000647	4	-0,147440091	0,0057903491
2	1	0	1	0	6385,99	3,55240774	3,55251837	1,5146835750589763	4	-0,136923507	0,00538094109
2	1	0	0	0	6392,64	3,61891389	3,61925125	1,4437625308831514	4	-0,127124935	0,00522533944
2	1	0	1	0	6399,29	3,68542027	3,68560386	1,4365839641541243	4	-0,117569655	0,0052946792
2	1	0	0	0	6405,94	3,75192642	3,75221658	1,4622238529846074	4	-0,107934296	0,00548658054
2	1	0	1	0	6412,59	3,81843257	3,81845903	1,5020643770694698	4	-0,0980848819	0,0057355715
2	1	0	0	0	6419,24	3,88493872	3,8850317	1,570441010718544	4	-0,0878833011	0,00610121293
2	1	0	1	0	6425,89	3,9514451	3,95179534	1,6744449498752694	4	-0,0771120861	0,00661706366
2	1	0	0	0	6432,54	4,01795053	4,01819611	1,8279270578995082	4	-0,0654921085	0,00734496955
2	1	0	0	0	6439,19	4,0844574	4,08460045	2,0508092983315363	4	-0,0526336282	0,00837673619
2	1	0	1	0	6445,84	4,15096331	4,15074205	2,358000845337905	4	-0,0380177423	0,00978745334
2	0	0	0	1	6452,43	4,1831665	4,18324137	2,355957444757216	4	-0,0216198787	0,00985553861
2	0	0	1	1	6459,08	4,11666059	4,11693907	1,5937133363137549	4	-0,00863914657	0,00656122062
2	0	0	0	1	6465,73	4,05015421	4,05044651	1,0425938811774067	4	2,58263044E-005	0,00422297092
2	0	0	1	1	6472,38	3,98364806	3,98378372	0,64291630964726029	4	0,00555291353	0,00256123953
2	0	0	0	1	6479,07	3,91674185	3,91706038	0,3591784228725975	4	0,0088410778	0,00140692352
2	0	0	1	1	6485,72	3,85023522	3,85038686	0,17491294226298691	4	0,0105665838	0,000673482486
2	0	0	0	1	6492,37	3,78372908	3,78395462	0,051354534070317926	4	0,0112902569	0,00019432322
2	0	0	0	1	6499,14	3,71602273	3,71605849	-0,042117387444401773	4	0,0113053322	0,00015651068
2	0	0	1	1	6505,83	3,64911652	3,6491847	-0,1171756952535361	4	0,0107625974	0,000427595747
2	0	0	0	1	6512,48	3,58261037	3,58278227	-0,1807595522841441	4	0,00976401102	0,000647622102
2	0	0	1	1	6519,13	3,51610398	3,51626945	-0,23545559976870845	4	0,00837182254	0,000827925338
2	0	0	0	1	6525,78	3,44959784	3,44969654	-0,28229314259563933	4	0,00664178701	0,000973825692
2	0	0	1	1	6532,43	3,38309169	3,38322401	-0,3219412257118768	4	0,00462496839	0,00108919933
2	0	0	0	1	6539,08	3,31658554	3,31661105	-0,35456155845895501	4	0,0023692199	0,00117594283
2	0	0	1	1	6545,73	3,25007915	3,25019836	-0,38124468262928256	4	-8,30192948E-005	0,00123912084
2	0	0	0	1	6552,38	3,18357301	3,18377566	-0,40289788112800198	4	-0,0026956799	0,00128273643
2	0	0	0	1	6559,04	3,1170671	3,11729312	-0,42135406316568333	4	-0,00544168893	0,00131348416
2	0	0	0	1	6560,34	3,10396647	3,10432196	-0,42600735276937485	4	-0,00599294901	0,00132246397