File: Experimentelles/Rohdaten/Batteriemessungen/AlteZelle/Studenten_Batterietests/Sonstige/ZView-Export/S vs Li_01_OCV_C02.txt
EC-Lab ASCII FILE
Nb header lines : 48

Open Circuit Voltage

Run on channel : 2 (SN 6986)
Grouped channel(s) : 2
User :
CE vs. WE compliance from -10 V to 10 V
Electrode connection : standard
Ewe ctrl range : min = 0,00 V, max = 5,00 V
Acquisition started on : 01.22.2015 12:13:34
Saved on :
	File : S vs Li_01_OCV_C02.mpr
	Directory : C:\Hupfer\Studenten Batterietests\
	Host : 192.168.0.2
Device : VMP3 (SN 0324)
Address : 192.168.0.1
EC-Lab for windows v10.33 (software)
Internet server v10.33 (firmware)
Command interpretor v10.32 (firmware)
Electrode material : S vs Li
Initial state : charged
Electrolyte : DME:Diox 1:2, 1M LiTFSi
Comments :
Mass of active material : 0,001 mg
 at x = 0,000
Molecular weight of active material (at x = 0) : 0,001 g/mol
Atomic weight of intercalated ion : 0,001 g/mol
Acquisition started at : xo = 0,000
Number of e- transfered per intercalated ion : 1
for DX = 1, DQ = 26,801 mA.h
Battery capacity : 0,000 A.h
Reference electrode : Li+/Li (-3,020 V)
Electrode surface area : 0,001 cm²
Characteristic mass : 0,001 g
Create one data file per loop
tR (h:m:s)          1:00:0,0000
dER/dt (mV/h)       0,0
dER (mV)            0,00
dtR (s)             5,0000
E range min (V)     0,000
E range max (V)     5,000

Number of loops : 1
Loop 0 from point number 0 to 720

mode	error	time/s	Ewe/V
3	1	0,0000	2,53045058
3	0	15,0000	2,52102852
3	0	30,0000	2,5117588
3	0	45,0000	2,50296593
3	0	60,0000	2,49434471
3	0	75,0000	2,48620057
3	0	90,0000	2,47853303
3	0	105,0000	2,47101808
3	0	120,0000	2,46382737
3	0	135,0000	2,45659852
3	0	150,0000	2,44978929
3	0	165,0000	2,4440484
3	0	180,0000	2,43941355
3	0	195,0000	2,4359231
3	0	210,0000	2,433043
3	0	225,0000	2,43031549
3	0	240,0000	2,42850351
3	0	255,0000	2,42676783
3	0	270,0000	2,42526102
3	0	285,0000	2,42392588
3	0	300,0000	2,42266703
3	0	315,0000	2,42161798
3	0	330,0000	2,42056894
3	0	345,0000	2,41971064
3	0	360,0000	2,41890955
3	0	375,0000	2,4182229
3	0	390,0000	2,41751719
3	0	405,0000	2,41684961
3	0	420,0000	2,41633463
3	0	435,0000	2,4157052
3	0	450,0000	2,41524744
3	0	465,0000	2,41467524
3	0	480,0000	2,41421747
3	0	495,0000	2,41389322
3	0	510,0000	2,41347361
3	0	525,0000	2,41305399
3	0	540,0000	2,41257715
3	0	555,0000	2,4123292
3	0	570,0000	2,41200495
3	0	585,0000	2,41173792
3	0	600,0000	2,41143274
3	0	615,0000	2,41101313
3	0	630,0000	2,4106698
3	0	645,0000	2,41047907
3	0	660,0000	2,41036463
3	0	675,0000	2,40992594
3	0	690,0000	2,4097352
3	0	705,0000	2,40946817
3	0	720,0000	2,40922022
3	0	735,0000	2,4090867
3	0	750,0000	2,4088769
3	0	765,0000	2,40870523
3	0	780,0000	2,40849543
3	0	795,0000	2,4082284
3	0	810,0000	2,40798044
3	0	825,0000	2,407866
3	0	840,0000	2,40759897
3	0	855,0000	2,4075036
3	0	870,0000	2,40738916
3	0	885,0000	2,40717936
3	0	900,0000	2,4069314
3	0	915,0000	2,40687418
3	0	930,0000	2,40668344
3	0	945,0000	2,40658808
3	0	960,0000	2,40632105
3	0	975,0000	2,40613031
3	0	990,0000	2,40607309
3	0	1005,0000	2,40603495
3	0	1020,0000	2,40569162
3	0	1035,0000	2,4057107
3	0	1050,0000	2,40550089
3	0	1065,0000	2,40540552
3	0	1080,0000	2,40525293
3	0	1095,0000	2,40508127
3	0	1110,0000	2,40504313
3	0	1125,0000	2,40490961
3	0	1140,0000	2,40479541
3	0	1155,0000	2,40466189
3	0	1170,0000	2,40450931
3	0	1185,0000	2,40431857
3	0	1200,0000	2,40424228
3	0	1215,0000	2,40408969
3	0	1230,0000	2,40387988
3	0	1245,0000	2,40399432
3	0	1260,0000	2,40378451
3	0	1275,0000	2,40361285
3	0	1290,0000	2,40346026
3	0	1305,0000	2,40338397
3	0	1320,0000	2,40338397
3	0	1335,0000	2,40325046
3	0	1350,0000	2,4030025
3	0	1365,0000	2,40292621
3	0	1380,0000	2,40288806
3	0	1395,0000	2,40277362
3	0	1410,0000	2,40273547
3	0	1425,0000	2,40250659
3	0	1440,0000	2,40256381
3	0	1455,0000	2,40223956
3	0	1470,0000	2,40218234
3	0	1485,0000	2,40201068
3	0	1500,0000	2,40197253
3	0	1515,0000	2,4017818
3	0	1530,0000	2,40172458
3	0	1545,0000	2,40168643
3	0	1560,0000	2,40161014
3	0	1575,0000	2,40147662
3	0	1590,0000	2,40147662
3	0	1605,0000	2,40120959
3	0	1620,0000	2,40103793
3	0	1635,0000	2,40103793
3	0	1650,0000	2,401057
3	0	1665,0000	2,40092349
3	0	1680,0000	2,40073276
3	0	1695,0000	2,40069461
3	0	1710,0000	2,40067554
3	0	1725,0000	2,40052295
3	0	1740,0000	2,40033221
3	0	1755,0000	2,40029407
3	0	1770,0000	2,40014148
3	0	1785,0000	2,40002704
3	0	1800,0000	2,40010333
3	0	1815,0000	2,3998363
3	0	1830,0000	2,39985538
3	0	1845,0000	2,39968371
3	0	1860,0000	2,39966464
3	0	1875,0000	2,39956927
3	0	1890,0000	2,39943576
3	0	1905,0000	2,39934039
3	0	1920,0000	2,39928317
3	0	1935,0000	2,3991878
3	0	1950,0000	2,39924502
3	0	1965,0000	2,39895892
3	0	1979,9999	2,39895892
3	0	1994,9999	2,39878726
3	0	2009,9999	2,39855838
3	0	2024,9999	2,3986156
3	0	2039,9999	2,39855838
3	0	2054,9999	2,39836764
3	0	2069,9999	2,39836764
3	0	2084,9999	2,3982532
3	0	2099,9999	2,39821506
3	0	2114,9999	2,39819598
3	0	2129,9999	2,39804339
3	0	2144,9999	2,39785266
3	0	2159,9999	2,39785266
3	0	2174,9999	2,39775729
3	0	2189,9999	2,39770007
3	0	2204,9999	2,39752841
3	0	2219,9999	2,39750934
3	0	2234,9999	2,39747119
3	0	2249,9999	2,39737582
3	0	2264,9999	2,39724231
3	0	2279,9999	2,39712787
3	0	2294,9999	2,3970325
3	0	2309,9999	2,39701343
3	0	2324,9999	2,39691806
3	0	2339,9999	2,39672732
3	0	2354,9999	2,39661288
3	0	2369,9999	2,39663196
3	0	2384,9999	2,39653659
3	0	2399,9999	2,39655566
3	0	2414,9999	2,39634585
3	0	2429,9999	2,39621234
3	0	2444,9999	2,3960979
3	0	2459,9999	2,39619327
3	0	2474,9999	2,3960216
3	0	2489,9999	2,39596438
3	0	2504,9999	2,39588809
3	0	2519,9999	2,39575458
3	0	2534,9999	2,39569736
3	0	2549,9999	2,39558291
3	0	2564,9999	2,39552569
3	0	2579,9999	2,39556384
3	0	2594,9999	2,39539218
3	0	2609,9999	2,39529681
3	0	2624,9999	2,39514422
3	0	2639,9999	2,3951633
3	0	2654,9999	2,39510608
3	0	2669,9999	2,39493442
3	0	2684,9999	2,39485812
3	0	2699,9999	2,39485812
3	0	2714,9999	2,39468646
3	0	2729,9999	2,39466739
3	0	2744,9999	2,39455295
3	0	2759,9999	2,39449573
3	0	2774,9999	2,39430499
3	0	2789,9999	2,39432406
3	0	2804,9999	2,3942287
3	0	2819,9999	2,39411426
3	0	2834,9999	2,39411426
3	0	2849,9999	2,39407611
3	0	2864,9999	2,39398074
3	0	2879,9999	2,39382815
3	0	2894,9999	2,39377093
3	0	2909,9999	2,39371371
3	0	2924,9999	2,39365649
3	0	2939,9999	2,39348483
3	0	2954,9999	2,39338946
3	0	2969,9999	2,39333224
3	0	2984,9999	2,39327502
3	0	2999,9999	2,39319873
3	0	3014,9999	2,39310336
3	0	3029,9999	2,39298892
3	0	3044,9999	2,39300799
3	0	3059,9999	2,39295077
3	0	3074,9999	2,39283633
3	0	3089,9999	2,39276004
3	0	3104,9999	2,39266467
3	0	3119,9999	2,39249301
3	0	3134,9999	2,39253116
3	0	3149,9999	2,39243579
3	0	3164,9999	2,3922832
3	0	3179,9999	2,39220691
3	0	3194,9999	2,39222598
3	0	3209,9999	2,39216876
3	0	3224,9999	2,39193988
3	0	3239,9999	2,39197803
3	0	3254,9999	2,39184451
3	0	3269,9999	2,39180636
3	0	3284,9999	2,39178729
3	0	3299,9999	2,39153934
3	0	3314,9999	2,39150119
3	0	3329,9999	2,39150119
3	0	3344,9999	2,39142489
3	0	3359,9999	2,39131045
3	0	3374,9999	2,39125323
3	0	3389,9999	2,39117694
3	0	3404,9999	2,3910625
3	0	3419,9999	2,39117694
3	0	3434,9999	2,39102435
3	0	3449,9999	2,39085269
3	0	3464,9999	2,39089084
3	0	3479,9999	2,39075732
3	0	3494,9999	2,39068103
3	0	3509,9999	2,39054751
3	0	3524,9999	2,39058566
3	0	3539,9999	2,39037585
3	0	3554,9999	2,39045215
3	0	3569,9999	2,39033771
3	0	3584,9999	2,39028049
3	0	3599,9999	2,39018512