File: Experimentelles/Rohdaten/Batteriemessungen/AlteZelle/Studenten_Batterietests/Sonstige/ZView-Export/S vs Li_02_CV_C02_loop6.txt
EC-Lab ASCII FILE
Nb header lines : 3
mode	ox/red	error	control changes	counter inc.	time/s	control/V	Ewe/V	<I>/mA	cycle number	(Q-Qo)/C	P/W
2	0	0	1	0	8040,75	2,39355302	2,39390588	-0,02476387843489647	7	0	5,92823926E-005
2	0	0	0	0	8047,27	2,32834339	2,32843518	-0,34898965580699405	7	-0,00118336745	0,000812599785
2	0	0	0	0	8053,77	2,26333475	2,2638464	-0,73717038426548326	7	-0,00467731617	0,00166884053
2	0	0	1	0	8060,31	2,19802594	2,19852662	-1,1712663027768384	7	-0,0109201111	0,00257506012
2	0	0	1	0	8066,81	2,13301682	2,13353682	-1,6168300583958589	7	-0,0199838765	0,00344956643
2	0	0	0	0	8073,31	2,06800771	2,06841707	-2,0821072869002874	7	-0,0319774747	0,00430666609
2	0	0	0	0	8079,81	2,00299883	2,00334764	-2,5845010125388742	7	-0,0471481606	0,00517765386
2	0	0	1	0	8086,31	1,93799007	1,93832791	-3,074626009290416	7	-0,0655463785	0,00595963327
2	0	0	1	0	8092,81	1,87298107	1,87363875	-3,5698652255038432	7	-0,0871436298	0,00668863766
2	0	0	0	0	8099,31	1,80797219	1,80869913	-3,9986983562509267	7	-0,111743405	0,00723244203
2	0	0	0	0	8105,81	1,74296319	1,74353957	-4,3775305896997427	7	-0,138928846	0,00763239758
2	0	0	0	0	8112,31	1,67795432	1,67850006	-4,6253400388835149	7	-0,168117315	0,0077636335
2	0	0	1	0	8118,81	1,61294544	1,61341035	-4,9521966179211974	7	-0,199291006	0,00798992533
2	0	0	1	0	8125,31	1,54793668	1,54852092	-5,2741205058992051	7	-0,232517928	0,00816708617
2	0	0	0	0	8131,82	1,48292768	1,48341131	-5,617939167966455	7	-0,267924517	0,00833371468
2	0	0	0	0	8138,32	1,41791868	1,41852188	-5,9891186617314893	7	-0,305969894	0,00849569589
2	0	0	1	0	8144,82	1,35290992	1,35321188	-6,2087284289300518	7	-0,345611662	0,00840172544
2	0	0	1	0	8151,32	1,28790092	1,28858292	-6,4499499946832947	7	-0,386818856	0,00831129495
2	0	0	0	0	8157,82	1,22289205	1,22365355	-6,7973824913302963	7	-0,430063665	0,00831764098
2	0	0	0	0	8164,32	1,15788317	1,15842354	-7,048351985712841	7	-0,474992126	0,00816497672
2	0	0	1	0	8170,82	1,09287405	1,09335387	-7,1764371767640115	7	-0,521185279	0,00784638524
2	0	0	1	0	8177,32	1,02786541	1,02839434	-7,3471898188193587	7	-0,568463981	0,00755580841
2	0	0	0	0	8183,82	0,962856472	0,9631446	-7,563135333359241	7	-0,617039084	0,00728439307
2	0	0	0	0	8190,32	0,897847533	0,89842546	-7,7329469770193165	7	-0,666754127	0,00694747642
2	0	0	1	0	8196,82	0,832838655	0,833335757	-7,8545681687196237	7	-0,717461407	0,00654549245
2	0	0	1	0	8203,33	0,767829716	0,768316209	-7,9835522944728717	7	-0,769211173	0,00613389257
2	0	0	1	0	8209,83	0,702820778	0,703296661	-8,119547155996201	7	-0,821622193	0,00571045047
2	0	0	0	0	8216,33	0,63781184	0,638216913	-8,1823451220989222	7	-0,874571919	0,00522211101
2	0	0	0	0	8222,83	0,572802961	0,573257446	-8,302264312903127	7	-0,928260744	0,00475933496
2	0	0	1	0	8229,33	0,507794082	0,508318007	-8,4513190562526285	7	-0,982802093	0,00429595774
2	1	0	0	0	8235,79	0,556800783	0,557525814	-7,7818856487671629	7	-1,0353539	0,00433860207
2	1	0	0	0	8242,29	0,621809661	0,622325063	-7,2246968746185446	7	-1,08399165	0,00449611014
2	1	0	0	0	8248,79	0,6868186	0,686994195	-6,6677164956927206	7	-1,12908626	0,00458068261
2	1	0	1	0	8255,29	0,751827538	0,752274156	-6,2457330885032998	7	-1,17100465	0,00469850376
2	1	0	1	0	8261,79	0,816836476	0,817373753	-5,8489918559789581	7	-1,21025229	0,00478081265
2	1	0	0	0	8268,29	0,881845355	0,882283211	-5,4697594617803917	7	-1,24700165	0,00482587703
2	1	0	0	0	8274,80	0,946854234	0,947392881	-5,0728549013535373	7	-1,2812798	0,00480598677
2	1	0	1	0	8281,30	1,01186311	1,0122323	-4,6866291152934278	7	-1,31298625	0,00474395743
2	1	0	1	0	8287,80	1,07687199	1,07749212	-4,3293538925548346	7	-1,34226513	0,00466484483
2	1	0	0	0	8294,30	1,14188087	1,14254165	-4,008774703989424	7	-1,36932802	0,00458019227
2	1	0	0	0	8300,80	1,20688975	1,20740104	-3,6654107458889536	7	-1,39421153	0,00442562066
2	1	0	1	0	8307,30	1,27189875	1,27238071	-3,3309704015652531	7	-1,41691864	0,00423826231
2	1	0	1	0	8313,80	1,33690763	1,33747029	-3,0189669970422982	7	-1,43758881	0,00403777882
2	1	0	0	0	8320,30	1,4019165	1,40241981	-2,7200232042620557	7	-1,45624959	0,00381461438
2	1	0	0	0	8326,80	1,4669255	1,4673692	-2,415892174467441	7	-1,47295022	0,00354500581
2	1	0	0	0	8333,30	1,53193414	1,53246808	-2,1249307770812038	7	-1,48771465	0,00325638847
2	1	0	1	0	8339,80	1,59694326	1,59725797	-1,8571952053656275	7	-1,50065804	0,00296641979
2	1	0	1	0	8346,31	1,66195214	1,66239786	-1,5915210793415824	7	-1,51187289	0,00264574122
2	1	0	0	0	8352,81	1,72696114	1,72743738	-1,330316343344748	7	-1,52137792	0,00229803822
2	1	0	0	0	8359,31	1,79197001	1,79267728	-1,0741694824149235	7	-1,52918124	0,00192563923
2	1	0	1	0	8365,81	1,85697889	1,85757661	-0,82895516852537869	7	-1,53535748	0,0015398477
2	1	0	1	0	8372,31	1,92198789	1,92274654	-0,58671737462282176	7	-1,53994763	0,00112810882
2	1	0	0	0	8378,85	1,98739684	1,9880265	-0,35565945963996134	7	-1,54302859	0,000707060448
2	1	0	0	0	8385,35	2,05240583	2,05290556	-0,13344368032024568	7	-1,54461193	0,000273947284
2	1	0	1	0	8391,97	2,11861467	2,11911678	0,084507108258548902	7	-1,54476893	0,000179080438
2	1	0	1	0	8398,51	2,18402362	2,18445683	0,29669422920172384	7	-1,54351842	0,000648115762
2	1	0	0	0	8405,01	2,24903274	2,24960685	0,50621395356332141	7	-1,54090714	0,00113878236
2	1	0	0	0	8411,51	2,31404138	2,31452608	0,71899819156775795	7	-1,53691828	0,00166414003
2	1	0	1	0	8418,02	2,37905025	2,37954593	0,93894556971887693	7	-1,53152335	0,00223426404
2	1	0	1	0	8424,56	2,44445944	2,44499588	1,1620742057760552	7	-1,52465653	0,00284126657
2	1	0	0	0	8431,06	2,50946856	2,5098052	1,3962566762541728	7	-1,51635158	0,00350433215
2	1	0	0	0	8437,56	2,5744772	2,57507515	1,6411652980993238	7	-1,50648558	0,00422612391
2	1	0	0	0	8444,06	2,63948512	2,63995337	1,8820327061220397	7	-1,49503517	0,00496847881
2	1	0	1	0	8450,56	2,70449519	2,70505428	2,125188132747999	7	-1,48200262	0,00574874924
2	1	0	1	0	8457,06	2,76950407	2,76997352	2,4045615028589894	7	-1,46729338	0,00666057179
2	1	0	0	0	8463,56	2,83451271	2,83490324	2,6958366204053091	7	-1,45074248	0,00764243584
2	1	0	0	0	8470,06	2,89952207	2,90002298	2,9632931196441203	7	-1,43236303	0,00859361794
2	1	0	1	0	8476,56	2,96453071	2,96507239	3,2680281276504243	7	-1,41213489	0,00968994014
2	1	0	1	0	8483,06	3,02953959	3,02999187	3,5375632035235539	7	-1,3900429	0,010718788
2	1	0	0	0	8489,57	3,0945487	3,09501147	3,8185988118251117	7	-1,36613774	0,0118186073
2	1	0	0	0	8496,07	3,1595571	3,15985084	4,1234365664422515	7	-1,3403374	0,013029444
2	1	0	1	0	8502,57	3,22456598	3,22511029	4,4367379173636435	7	-1,31266773	0,0143089695
2	1	0	1	0	8509,07	3,28957534	3,29005957	4,6822258830070214	7	-1,2830354	0,0154048018
2	1	0	0	0	8515,57	3,35458398	3,35497952	5,0508022730549203	7	-1,25136614	0,0169453379
2	1	0	0	0	8522,07	3,41959286	3,42003918	5,5520792417228154	7	-1,21720541	0,0189883281
2	1	0	1	0	8528,57	3,48460293	3,48498917	5,9454974655444032	7	-1,17968273	0,0207199939
2	1	0	1	0	8535,07	3,54961061	3,55031848	6,2439981314043034	7	-1,14000511	0,0221681818
2	1	0	1	0	8541,57	3,61461973	3,61525774	6,6912943646312038	7	-1,09795892	0,0241907537
2	1	0	0	0	8548,07	3,67962861	3,68023729	6,9919501716891827	7	-1,05415344	0,0257320367
2	1	0	0	0	8554,57	3,74463749	3,74510694	7,3685692523916083	7	-1,00765789	0,0275960807
2	1	0	1	0	8561,07	3,80964637	3,81016636	7,9195689062277376	7	-0,958020866	0,0301748756
2	1	0	1	0	8567,58	3,87465525	3,8752861	8,2937209804852608	7	-0,905135393	0,0321405418
2	1	0	0	0	8574,08	3,93966436	3,94030571	8,8761756072441638	7	-0,849816024	0,034974847
2	1	0	0	0	8580,58	4,004673	4,00522518	9,4637955824534362	7	-0,790569663	0,0379046313
2	1	0	1	0	8587,12	4,07008219	4,07050514	10,237528791030254	7	-0,72559607	0,0416719131
2	1	0	1	0	8593,62	4,13509083	4,13574505	11,492327938477131	7	-0,655880213	0,0475293398
2	1	0	0	0	8600,10	4,19990063	4,20047474	12,654888987541184	7	-0,578179896	0,0531565398
2	0	0	1	1	8606,54	4,13569117	4,13632584	12,180943846702576	7	-0,49751243	0,0503843538
2	0	0	1	1	8613,04	4,07068205	4,07103634	11,046612910926357	7	-0,42219758	0,0449711643
2	0	0	0	1	8619,54	4,00567341	4,00615644	9,6032965605457152	7	-0,355126977	0,0384723097
2	0	0	0	1	8626,04	3,94066453	3,94101691	8,353175044059753	7	-0,296534449	0,0329200029
2	0	0	1	1	8632,55	3,87565565	3,87616754	7,2716879323124915	7	-0,24587743	0,0281862803
2	0	0	1	1	8639,05	3,81064653	3,8112781	6,2799078921476902	7	-0,201994285	0,0239344761
2	0	0	0	1	8645,55	3,74563766	3,74580765	5,4101501268645293	7	-0,164065793	0,0202653818
2	0	0	0	1	8652,09	3,68022871	3,68078828	4,7066531243423616	7	-0,131201401	0,0173241943
2	0	0	0	1	8658,59	3,61522055	3,61576962	4,2334486462175674	7	-0,102253005	0,015307175
2	0	0	1	1	8665,09	3,55021095	3,55086946	3,7807922934492384	7	-0,0762681141	0,0134250997
2	0	0	1	1	8671,59	3,48520184	3,48564935	3,3778527875741274	7	-0,0530417003	0,01177401
2	0	0	0	1	8678,09	3,42019296	3,42067981	3,0402316755304672	7	-0,0322074108	0,0103996592
2	0	0	0	1	8684,59	3,35518408	3,35575032	2,7518325317651069	7	-0,0133600272	0,00923446286
2	0	0	1	1	8691,09	3,2901752	3,29074097	2,5062360453108995	7	0,00371097471	0,00824737363
2	0	0	1	1	8697,59	3,22516632	3,2257812	2,2638188054164275	7	0,0191761721	0,00730258413
2	0	0	0	1	8704,10	3,1601572	3,16076183	2,0400899052619898	7	0,0331663564	0,00644823816
2	0	0	0	1	8710,60	3,0951488	3,09552217	1,8755774851888419	7	0,0458663665	0,00580589147
2	0	0	1	1	8717,10	3,03013968	3,03059268	1,6943216832975523	7	0,0574677065	0,00513479905
2	0	0	1	1	8723,60	2,96513081	2,96568322	1,539634071911376	7	0,0679654256	0,0045660669
2	0	0	0	1	8730,10	2,90012217	2,90085411	1,3817448898528966	7	0,0774526745	0,00400824053
2	0	0	0	1	8736,60	2,83511305	2,83581424	1,2248115353286266	7	0,0859130919	0,00347333797
2	0	0	1	1	8743,10	2,77010298	2,77062345	1,0641009680505658	7	0,0933543593	0,00294822315
2	0	0	1	1	8749,60	2,70509529	2,70551467	0,91186303241799219	7	0,0997782275	0,00246705883
2	0	0	1	1	8756,10	2,64008617	2,64059544	0,75752289375911014	7	0,105204053	0,00200031139
2	0	0	0	1	8762,60	2,5750773	2,57559586	0,59107231302186752	7	0,109588228	0,0015223634
2	0	0	0	1	8769,14	2,50966859	2,51012588	0,40329835703596294	7	0,112853788	0,00101232959
2	0	0	1	1	8775,64	2,44465947	2,44506598	0,18037695666619856	7	0,114775352	0,000441033568
2	0	0	1	1	8780,71	2,39395308	2,39462686	-0,024011673198805914	7	0,115183428	5,74989972E-005