File: Experimentelles/Rohdaten/Batteriemessungen/AlteZelle/Studenten_Batterietests/Sonstige/ZView-Export/S vs Li_05_GCPL_C02_loop0.txt
EC-Lab ASCII FILE
Nb header lines : 3
mode	ox/red	error	control changes	Ns changes	counter inc.	Ns	time/s	control/V/mA	Ewe/V	dq/mA.h	<I>/mA	P/W	(Q-Qo)/mA.h	x	Capacity/mA.h
1	0	0	1	1	0	1	15341,20	-0,100000001	2,29113698	0	0	0	0	0	0
1	0	0	1	0	0	1	16461,20	-0,100000001	2,17362595	-0,00027770897674767507	-0,099975232839582515	0,000217308756	-0,031102042718227802	0,00116045903095826	0,031102042718227802
1	0	0	1	0	0	1	17581,20	-0,100000001	2,11806512	-0,00027770856632623411	-0,099975085087861978	0,000211753737	-0,062205424825199667	0,0023209680363113885	0,062205424825199667
1	0	0	1	0	0	1	18701,20	-0,100000001	2,07297587	-0,00027770818677254848	-0,099974948448533491	0,000207245655	-0,093308778645649446	0,0034814759862563462	0,093308778645649446
1	0	0	1	0	0	1	19821,20	-0,100000001	2,08562136	-0,0002777077605923017	-0,09997479502364279	0,000208509562	-0,12441204903749739	0,0046419808233679994	0,12441204903749739
1	0	0	1	0	0	1	20941,20	-0,100000001	2,09008455	-0,00027770743968337773	-0,099974679496428774	0,000208955535	-0,15551528986876029	0,0058024845575344781	0,15551528986876029
1	0	0	1	0	0	1	22061,20	-0,100000001	2,09210634	-0,00027770808850021827	-0,099974913070494195	0,000209158155	-0,18661860039844829	0,0069629908922429094	0,18661860039844829
1	0	0	1	0	0	1	23181,20	-0,100000001	2,09317446	-0,00027770728531769581	-0,099974623924782605	0,000209264326	-0,2177219013830224	0,0081234968708103066	0,2177219013830224
1	0	0	1	0	0	1	24301,20	-0,100000001	2,09267855	-0,00027770845033849277	-0,099975043332274598	0,000209215636	-0,24882518835115501	0,0092840023264054259	0,24882518835115501
1	0	0	1	0	0	1	25421,20	-0,100000001	2,09136248	-0,00027770729334983562	-0,099974626816352973	0,000209083184	-0,27992842689943469	0,010444505975390733	0,27992842689943469
1	0	0	1	0	0	1	26541,20	-0,100000001	2,08958864	-0,00027770688395947216	-0,099974479435820326	0,000208905534	-0,311031664858112	0,011605009602377182	0,311031664858112
1	0	0	1	0	0	1	27661,20	-0,100000001	2,08632708	-0,0002777083942550752	-0,099975023142244019	0,000208580605	-0,34213492515792429	0,012765514062941414	0,34213492515792429
1	0	0	1	0	0	1	28781,20	-0,100000001	2,08283663	-0,00027770709182942909	-0,099974554269005722	0,00020823066	-0,37323817640179578	0,013926018185616323	0,37323817640179578
1	0	0	1	0	0	1	29901,20	-0,100000001	2,07967043	-0,00027770616419282221	-0,099974220319823232	0,000207913428	-0,40434137087547757	0,015086520190119123	0,40434137087547757
1	0	0	1	0	0	1	31021,20	-0,100000001	2,07545543	-0,00027770723460904426	-0,099974605669667814	0,000207492834	-0,43544457241993338	0,016247022458442006	0,43544457241993338
1	0	0	1	0	0	1	32141,20	-0,100000001	2,0716598	-0,00027770697551013699	-0,099974512394060083	0,000207113175	-0,46654776888740986	0,017407524537335968	0,46654776888740986
1	0	0	1	0	0	1	33261,20	-0,100000001	2,06782603	-0,00027770715312204426	-0,099974574937718771	0,000206730023	-0,4976510036180841	0,01856802804388128	0,4976510036180841
1	0	0	1	0	0	1	34381,20	-0,100000001	2,06311488	-0,00027770699746492838	-0,099974518901157158	0,000206258919	-0,52875422232705702	0,019728530952635379	0,52875422232705702
1	0	0	1	0	0	1	35501,20	-0,100000001	2,0584991	-0,00027770637482239139	-0,099974294749844275	0,000205796998	-0,55985739125877978	0,020889032004133344	0,55985739125877978
1	0	0	1	0	0	1	36621,20	-0,100000001	2,05268168	-0,0002777072400024368	-0,099974606214660019	0,000205216042	-0,59096059919810381	0,022049534511057363	0,59096059919810381
1	0	0	1	0	0	1	37741,20	-0,100000001	2,04678798	-0,0002777063703946769	-0,099974293155867059	0,00020462618	-0,62206382137824141	0,023210037549325283	0,62206382137824141
1	0	0	1	0	0	1	38861,20	-0,100000001	2,03961635	-0,0002777089241196712	-0,099975212496863283	0,000203911084	-0,65316704975582912	0,024370540818828397	0,65316704975582912
1	0	0	1	0	0	1	39981,20	-0,100000001	2,03234959	-0,00027770730755436752	-0,099974630533355046	0,000203183401	-0,68427031915893517	0,025531045619048758	0,68427031915893517
1	0	0	1	0	0	1	41101,20	-0,100000001	2,02292728	-0,00027770664630499152	-0,099974392483580134	0,000202240932	-0,7153735265138144	0,026691548104166352	0,7153735265138144
1	0	0	1	0	0	1	42221,20	-0,100000001	2,00904179	-0,00027770732326060531	-0,099974636187600653	0,000200853217	-0,74647672829447053	0,027852050381302192	0,74647672829447053
1	0	0	1	0	0	1	43341,20	-0,100000001	1,97749436	-0,00027770565798257789	-0,099974036687511885	0,0001976981	-0,77757991496257062	0,029012552094568243	0,77757991496257062
1	0	0	1	0	0	1	44461,20	-0,100000001	1,78809583	-0,00027770670107131203	-0,099974412199455475	0,000178763832	-0,80868305558893171	0,03017305208995511	0,80868305558893171
1	0	0	1	0	0	1	45581,20	-0,100000001	1,22798705	-0,00027770648282062675	-0,099974333629208922	0,000122767189	-0,83978618014360448	0,03133355148568567	0,83978618014360448
1	1	0	0	0	0	2	46689,96	0,100000001	2,30446935	0,00027780631580866048	0,10001027350483411	0,000230470614	-0,8350245090847159	0,031155887136343712	0,017779578673368522
1	1	0	0	0	0	2	47809,96	0,100000001	2,29323506	0,00027780642118139398	0,1000103114390181	0,000229347148	-0,8039102061149975	0,029994970658918259	0,048893881643086278
1	1	0	0	0	0	2	48929,96	0,100000001	2,2902596	0,00027780594422502646	0,10001013973472613	0,000229049183	-0,77279588752359923	0,028834053598626918	0,080008200234485146
1	1	0	0	0	0	2	50049,96	0,100000001	2,28127623	0,00027780664047681622	0,10001039038536997	0,00022815133	-0,7416814932928983	0,027673133716131501	0,11112259446518659
1	1	0	0	0	0	2	51169,96	0,100000001	2,27282667	0,00027780672813413872	0,10001042194200602	0,000227306358	-0,71056715217061005	0,026512215815182365	0,14223693558747469
1	1	0	0	0	0	2	52289,96	0,100000001	2,26874495	0,00027780636019052726	0,10001028948230614	0,000226897842	-0,67945284520489843	0,025351299188661027	0,17335124255318589
1	1	0	0	0	0	2	53409,96	0,100000001	2,26798201	0,00027780642361069722	0,10001031231356726	0,00022682159	-0,64833860723573184	0,024190385136493555	0,20446548052235216
1	1	0	0	0	0	2	54529,96	0,100000001	2,2689929	0,0002778057518361343	0,10001007047472509	0,000226922144	-0,61722430023210586	0,023029468508557578	0,23557978752597821
1	1	0	0	0	0	2	55649,96	0,100000001	2,27105284	0,00027780718245936765	0,10001058549908811	0,00022712932	-0,58610995676697702	0,02186855052019391	0,26669413099110723
1	1	0	0	0	0	2	56769,96	0,100000001	2,27435255	0,00027780521026957366	0,10000987551076362	0,000227457713	-0,55499562661457901	0,020707633028546131	0,29780846114350522
1	1	0	0	0	0	2	57889,96	0,100000001	2,27772856	0,00027780703366713395	0,10001053193388408	0,000227796845	-0,52388136982983302	0,01954671827434409	0,32892271792825165
1	1	0	0	0	0	2	59009,96	0,100000001	2,28154325	0,0002778074939391679	0,10001069763181602	0,000228178731	-0,49276700137123091	0,01838579935344033	0,36003708638685325
1	1	0	0	0	0	2	60129,96	0,100000001	2,28657842	0,00027780724040211904	0,10001060635847858	0,000228682096	-0,46165264134574144	0,017224880747187341	0,39115144641234278
1	1	0	0	0	0	2	61249,96	0,100000001	2,29127049	0,00027780662979558115	0,10001038654012534	0,000229150843	-0,43053827323986963	0,016063961839444422	0,42226581451821453
1	1	0	0	0	0	2	62369,96	0,100000001	2,29672551	0,00027780683716014026	0,1000104611913665	0,000229696583	-0,39942390102221568	0,014903042778285386	0,45338018673586848
1	1	0	0	0	0	2	63489,96	0,100000001	2,30200887	0,00027780626147199008	0,1000102539436328	0,000230224497	-0,3683095304643232	0,013742123779054277	0,48449455729376102
1	1	0	0	0	0	2	64609,96	0,100000001	2,30841756	0,0002778063978714248	0,10001030304742922	0,000230865538	-0,33719516350194995	0,012581204913976829	0,51560892425613427
1	1	0	0	0	0	2	65729,97	0,100000001	2,31389165	0,0002778113632020023	0,10001011421880587	0,000231412574	-0,30608074284892781	0,011420284045629083	0,54672334490915622
1	1	0	0	0	0	2	66849,99	0,100000001	2,32007146	0,00027781197829792899	0,10001033545104067	0,000232031118	-0,27496578075163059	0,010259342975267453	0,57783830700645299
1	1	0	0	0	0	2	67970,01	0,100000001	2,3256216	0,00027781291634258298	0,10001067314277008	0,000232586986	-0,24385082739231069	0,0090984022309315046	0,60895326036577267
1	1	0	0	0	0	2	69090,03	0,100000001	2,33124828	0,00027781128757529786	0,10001008713227579	0,000233148341	-0,21273591796194557	0,0079374631256439232	0,64006816979613773
1	1	0	0	0	0	2	70210,05	0,100000001	2,33607388	0,00027781211596934333	0,10001038538564038	0,000233631654	-0,18162097394670016	0,0067765227299479578	0,67118311381138317
1	1	0	0	0	0	2	71330,08	0,100000001	2,34097576	0,00027781208640792304	0,10001037461785475	0,000234121864	-0,1505060219680233	0,0056155820371256576	0,70229806579006042
1	1	0	0	0	0	2	72450,10	0,100000001	2,34606838	0,0002778133894548648	0,10001084345982518	0,000234632273	-0,1193910637760383	0,0044546411124764774	0,73341302398204544
1	1	0	0	0	0	2	73570,12	0,100000001	2,35182858	0,00027781244517738618	0,10001050352432325	0,000235207553	-0,088276088805590362	0,0032936995618002861	0,76452799895249331
1	1	0	0	0	0	2	74690,14	0,100000001	2,35686398	0,00027781257055906781	0,10001054894258574	0,000235711253	-0,057161096464053395	0,0021327573629854077	0,79564299129403021
1	1	0	0	0	0	2	75810,17	0,100000001	2,36008739	0,00027781169817265542	0,10001023498165942	0,000236032894	-0,026046118860100477	0,00097181571404960474	0,82675796889798285
1	1	0	0	0	0	2	76930,19	0,100000001	2,36319637	0,00027781149413643613	0,10001016146036262	0,000236343651	0,0050687860440966029	-0,00018912322236056205	0,85787287380217997
1	1	0	0	0	0	2	78050,21	0,100000001	2,37061572	0,00027781115911818211	0,10001004055332483	0,000237085376	0,036183639252666611	-0,0013500602299373776	0,8889877270107497
1	1	0	0	0	0	2	79170,23	0,100000001	2,37700534	0,00027781056264332598	0,10000982582778499	0,000237723885	0,067298453222662426	-0,0025109957734702326	0,92010254098074522
1	1	0	0	0	0	2	80290,25	0,100000001	2,3825748	0,00027781133499989907	0,1000101040918628	0,000238281558	0,098413266728726746	-0,0036719312996931795	0,95121735448680986
1	1	0	0	0	0	2	81410,28	0,100000001	2,38669467	0,00027781106360049715	0,10001000654136106	0,000238693348	0,12952813660188778	-0,0048328689290482918	0,98233222435997107
1	1	0	0	0	0	2	82049,96	0,100000001	2,39708972	0,0002686384436984857	0,10001019938425782	0,000239733417	0,1472989076618112	-0,0054959202903498394	1,0001029954198939