File: Experimentelles/Rohdaten/Batteriemessungen/AlteZelle/Studenten_Batterietests/Sonstige/ZView-Export/S vs Li_05_GCPL_C02_loop2.txt
EC-Lab ASCII FILE
Nb header lines : 3
mode	ox/red	error	control changes	Ns changes	counter inc.	Ns	time/s	control/V/mA	Ewe/V	dq/mA.h	<I>/mA	P/W	(Q-Qo)/mA.h	x	Capacity/mA.h
1	0	0	1	1	0	1	146805,94	-0,100000001	2,38049579	0	0	0	0	0	0
1	0	0	1	0	0	1	147905,94	-0,100000001	2,19523621	-0,00027770814171267882	-0,099974915374269914	0,000219468551	-0,030546469865835968	0,0011397298608598762	0,030546469865835968
1	0	0	1	0	0	1	149005,94	-0,100000001	2,16778946	-0,00027770811352837421	-0,099974905227921843	0,00021672454	-0,061094360482852672	0,0022795127318565261	0,061094360482852672
1	0	0	1	0	0	1	150105,94	-0,100000001	2,1378634	-0,0002777069322773152	-0,099974479977607142	0,000213731779	-0,091642167674755264	0,0034192924901500019	0,091642167674755264
1	0	0	1	0	0	1	151205,94	-0,100000001	2,0958066	-0,00027770809159676234	-0,09997489733254281	0,000209528051	-0,12219002167870326	0,0045590739950638317	0,12219002167870326
1	0	0	1	0	0	1	152305,94	-0,100000001	2,05207133	-0,00027770788433609738	-0,099974822718715098	0,000205155462	-0,15273795442946608	0,0056988584381271981	0,15273795442946608
1	0	0	1	0	0	1	153405,94	-0,100000001	2,02437687	-0,00027770795845654272	-0,099974849402071258	0,000202386771	-0,18328588404756528	0,0068386427643066739	0,18328588404756528
1	0	0	1	0	0	1	154505,94	-0,100000001	2,02250767	-0,00027770872254338531	-0,099975124473291533	0,000202200463	-0,21383380641880243	0,0079784268200959808	0,21383380641880243
1	0	0	1	0	0	1	155605,94	-0,100000001	2,02327061	-0,00027770814426036342	-0,099974916291436224	0,000202276307	-0,24438161096370448	0,0091182064796263091	0,24438161096370448
1	0	0	1	0	0	1	156705,94	-0,100000001	2,02323246	-0,00027770769154984093	-0,099974753315673626	0,00020227216	-0,27492942302266637	0,01025798641951631	0,27492942302266637
1	0	0	1	0	0	1	157805,94	-0,100000001	2,02159214	-0,00027770818209441171	-0,099974929911691482	0,000202108538	-0,30547729526093517	0,011397768604777165	0,30547729526093517
1	0	0	1	0	0	1	158905,94	-0,100000001	2,01678562	-0,00027770688616856931	-0,09997446337846121	0,000201627059	-0,3360251258507072	0,012537549236076611	0,3360251258507072
1	0	0	1	0	0	1	160005,94	-0,100000001	2,01230335	-0,00027770605454469722	-0,099974163993914112	0,000201178351	-0,36657292534449146	0,013677328707142938	0,36657292534449146
1	0	0	1	0	0	1	161105,94	-0,100000001	2,00755405	-0,00027770785567454166	-0,099974812400556659	0,000200704846	-0,39712070129975469	0,014817107299955405	0,39712070129975469
1	0	0	1	0	0	1	162205,94	-0,100000001	2,00234699	-0,00027770799106193914	-0,099974861140012122	0,000200184368	-0,42766854331872506	0,015956888357693603	0,42766854331872506
1	0	0	1	0	0	1	163305,94	-0,100000001	1,99979115	-0,00027770750312548541	-0,099974685482916262	0,000199928487	-0,45821632677397651	0,01709666723034071	0,45821632677397651
1	0	0	1	0	0	1	164405,94	-0,100000001	1,99479401	-0,00027770681778093181	-0,099974438758915571	0,00019942841	-0,48876411253374515	0,018236446188972451	0,48876411253374515
1	0	0	1	0	0	1	165505,95	-0,100000001	1,99050248	-0,00027770646965213946	-0,099974313432569933	0,000198999114	-0,51931190229998157	0,019376225297090896	0,51931190229998157
1	0	0	1	0	0	1	166605,95	-0,100000001	1,98455155	-0,00027770731791315808	-0,099974618806488845	0,000198404785	-0,54985968241370022	0,020516004045060922	0,54985968241370022
1	0	0	1	0	0	1	167705,95	-0,100000001	1,97745621	-0,000277707315488408	-0,099974617933578957	0,000197695423	-0,5804074548444265	0,021655782506368173	0,5804074548444265
1	0	0	1	0	0	1	168805,95	-0,100000001	1,96927381	-0,00027770631254588566	-0,099974256874327411	0,000196876688	-0,61095523044738842	0,022795561086035802	0,61095523044738842
1	0	0	1	0	0	1	169905,95	-0,100000001	1,96328473	-0,00027770675632398989	-0,09997441663441993	0,000196278241	-0,64150302911949107	0,023935340526444086	0,64150302911949107
1	0	0	1	0	0	1	171005,95	-0,100000001	1,9494375	-0,00027770747606746022	-0,09997467574202871	0,000194894383	-0,67205084156894118	0,025075120480903728	0,67205084156894118
1	0	0	1	0	0	1	172105,95	-0,100000001	1,9349035	-0,0002777069518541296	-0,099974487025259213	0,000193440981	-0,70259863930758182	0,02621489988648329	0,70259863930758182
1	0	0	1	0	0	1	173205,95	-0,100000001	1,91073763	-0,00027770656715416246	-0,099974348533292723	0,000191024752	-0,73314636857678234	0,027354676737375981	0,73314636857678234
1	0	0	1	0	0	1	174305,95	-0,100000001	1,84594536	-0,00027770661909836861	-0,099974367233204006	0,000184547214	-0,76369411724280358	0,028494454311990138	0,76369411724280358
1	0	0	1	0	0	1	175405,95	-0,100000001	1,24576342	-0,00027770700470730662	-0,099974506052399962	0,000124544589	-0,79424186030388966	0,029634231677476621	0,79424186030388966
1	1	0	0	0	0	2	176493,97	0,100000001	2,37780643	0,00027780706492356125	0,1000105277246156	0,000237805682	-0,79168156883435136	0,029538703760399661	0,016390636664407123
1	1	0	0	0	0	2	177593,97	0,100000001	2,3421011	0,00027780729963878787	0,10001061222208398	0,000234234962	-0,76112273421834406	0,02839851255408631	0,046949471280414592
1	1	0	0	0	0	2	178693,97	0,100000001	2,35003567	0,00027780702761602067	0,1000105142939031	0,000235028274	-0,73056394653119514	0,027258323098751757	0,077508258967563456
1	1	0	0	0	0	2	179793,97	0,100000001	2,36100292	0,00027780755372552406	0,10001070369329469	0,000236125561	-0,70000511523357274	0,026118132016251811	0,10806709026518573
1	1	0	0	0	0	2	180893,97	0,100000001	2,36464572	0,00027780750757041904	0,10001068707745949	0,000236489839	-0,66944630786678771	0,024977941826643578	0,13862589763197038
1	1	0	0	0	0	2	181993,97	0,100000001	2,36512256	0,00027780657265128362	0,10001035050662339	0,00023653674	-0,63888752327327296	0,023837752486736675	0,16918468222548454
1	1	0	0	0	0	2	183093,97	0,100000001	2,36596179	0,00027780749610935648	0,1000106829514776	0,000236621461	-0,60832873988158093	0,022697563191671398	0,19974346561717674
1	1	0	0	0	0	2	184193,97	0,100000001	2,36704898	0,00027780647523121702	0,10001031543540491	0,00023672932	-0,57776997713532902	0,021557374666915248	0,23030222836342835
1	1	0	0	0	0	2	185293,97	0,100000001	2,36954761	0,00027780725567953453	0,10001059639675525	0,000236979875	-0,54721121134794669	0,020417186028690438	0,26086099415081005
1	1	0	0	0	0	2	186393,97	0,100000001	2,3733623	0,00027780678006675507	0,10001042517618142	0,000237360975	-0,51665242292518509	0,01927699654590919	0,29141978257357114
1	1	0	0	0	0	2	187493,97	0,100000001	2,37937045	0,00027780756837088202	0,10001070896562272	0,000237962522	-0,48609363271384742	0,018136806996393763	0,32197857278490886
1	1	0	0	0	0	2	188593,97	0,100000001	2,38682818	0,00027780745529300634	0,10001066825759386	0,000238708279	-0,4555348156465481	0,016996616444846301	0,35253738985220826
1	1	0	0	0	0	2	189693,97	0,100000001	2,39342761	0,0002778076674586369	0,10001074463720891	0,000239368484	-0,42497604405088314	0,015856427589906653	0,38309616144787322
1	1	0	0	0	0	2	190793,97	0,100000001	2,39941669	0,00027780658819981744	0,10001035610409469	0,00023996651	-0,39441726728199782	0,0147162385419472	0,41365493821675853
1	1	0	0	0	0	2	191893,97	0,100000001	2,4053483	0,00027780669504735203	0,10001039456920112	0,000240559835	-0,36385851850355264	0,013576050538348701	0,44421368699520378
1	1	0	0	0	0	2	192993,97	0,100000001	2,41601038	0,00027780725357143411	0,10001059563783922	0,000241626636	-0,3332997019552361	0,012435860006165184	0,47477250354352026
1	1	0	0	0	0	2	194093,97	0,100000001	2,42066431	0,00027780661751992176	0,10001036665933059	0,000242091526	-0,30274090170289709	0,011295670082006496	0,5053313037958592
1	1	0	0	0	0	2	195193,97	0,100000001	2,43161249	0,00027780673862910928	0,1000104102586313	0,000243186558	-0,27218216135144003	0,010155482392830256	0,53589004414731546
1	1	0	0	0	0	2	196293,97	0,100000001	2,43432093	0,00027780756154904758	0,10001070650976272	0,000243458155	-0,24162339025908307	0,0090152935566697062	0,56644881523967206
1	1	0	0	0	0	2	197393,97	0,100000001	2,4418931	0,00027780765295359818	0,10001073941539579	0,000244215538	-0,21106461298790134	0,007875104489968896	0,5970075925108535
1	1	0	0	0	0	2	198493,97	0,100000001	2,45139146	0,00027780774897005827	0,10001077398131598	0,000245165545	-0,180505796200444	0,0067349139488627136	0,62756640929831104
1	1	0	0	0	0	2	199593,97	0,100000001	2,44826341	0,00027780708450203139	0,10001053477286376	0,000244852126	-0,14994693776197574	0,0055947218537013139	0,65812526773677926
1	1	0	0	0	0	2	200693,97	0,100000001	2,46043229	0,00027780851638648246	0,1000110502511855	0,000246070413	-0,11938805514912133	0,0044545288565610637	0,68868415034963341
1	1	0	0	0	0	2	201793,97	0,100000001	2,46979737	0,00027780663464715082	0,10001037282513208	0,000247005344	-0,088829237096393574	0,0033143382682459411	0,71924296840236122
1	1	0	0	0	0	2	202893,97	0,100000001	2,46872926	0,00027780696268710826	0,10001049091949829	0,000246898824	-0,05827043003883735	0,0021741480901754515	0,74980177545991795
1	1	0	0	0	0	2	203993,97	0,100000001	2,48276734	0,00027780783242608112	0,10001080402547952	0,00024830355	-0,027711607484744115	0,0010339573339083306	0,78036059801401139
1	1	0	0	0	0	2	205093,97	0,100000001	2,48665833	0,00027780804287435277	0,10001087978684547	0,000248692901	0,0028472334130891898	-0,00010623410678839581	0,81091943891184538
1	1	0	0	0	0	2	206193,97	0,100000001	2,49392509	0,00027780697641604477	0,10001049586191466	0,000249418692	0,033406028406105638	-0,0012464238347146858	0,84147823390486195
1	1	0	0	0	0	2	207293,97	0,100000001	2,50506401	0,00027780646967763702	0,10001031343611643	0,000250532234	0,063964813384549594	-0,0023866131889838109	0,87203701888330624
1	1	0	0	0	0	2	208393,97	0,100000001	2,51345634	0,00027780680924695398	0,10001043568105139	0,00025137185	0,094523624282764198	-0,0035268035103544288	0,90259582978152051
1	1	0	0	0	0	2	209493,97	0,100000001	2,49686241	0,00027780727609412541	0,1000106037460068	0,000249712728	0,12508238829505794	-0,0046669920823483002	0,93315459379381427
1	1	0	0	0	0	2	210593,97	0,100000001	2,50411034	0,00027780585435322592	0,10001009191936309	0,000250436307	0,1556411779610391	-0,0058071816115157402	0,96371338345979546
1	1	0	0	0	0	2	211693,97	0,100000001	2,5260067	0,00027780709997398982	0,10001054034276794	0,000252627302	0,18619995809952755	-0,0069473707851996186	0,99427216359828416
1	1	0	0	0	0	2	211903,97	0,100000001	2,52739906	0,00027780771843219798	0,10001076298768802	0,000252767117	0,19203391233551926	-0,0071650434615793626	1,0001061178342758