File: Experimentelles/Rohdaten/Batteriemessungen/AlteZelle/Studenten_Batterietests/Sonstige/ZView-Export/S vs Li_02_CV_C02_loop3.txt
EC-Lab ASCII FILE
Nb header lines : 3
mode	ox/red	error	control changes	counter inc.	time/s	control/V	Ewe/V	<I>/mA	cycle number	(Q-Qo)/C	P/W
2	0	0	1	0	5820,41	2,39165258	2,39190316	-0,056717429310083392	4	0	0,000135662602
2	0	0	0	0	5826,93	2,3264432	2,32698321	-0,4243612171461191	4	-0,00153217337	0,000987481442
2	0	0	0	0	5833,44	2,26143456	2,2619338	-0,87340513927241229	4	-0,00570509257	0,00197558454
2	0	0	1	0	5839,97	2,19612527	2,1965735	-1,358396085600063	4	-0,0129997032	0,0029838169
2	0	0	1	0	5846,47	2,13111639	2,13160419	-1,8409376976390634	4	-0,0234187134	0,00392415049
2	0	0	0	0	5852,97	2,06610751	2,06675506	-2,317071721578639	4	-0,0369330496	0,0047888197
2	0	0	0	0	5859,47	2,00109863	2,00168514	-2,8459857273846864	4	-0,053727176	0,00569676748
2	0	0	1	0	5865,97	1,93608975	1,93665564	-3,400984089821584	4	-0,0739916489	0,0065865349
2	0	0	1	0	5872,47	1,87108088	1,87157607	-3,9514993826548378	4	-0,0979324803	0,00739553152
2	0	0	0	0	5878,97	1,80607188	1,80682683	-4,4621551769475046	4	-0,125392362	0,00806234125
2	0	0	0	0	5885,47	1,741063	1,74159682	-4,7927879629035814	4	-0,155698657	0,0083471043
2	0	0	0	0	5891,97	1,676054	1,67649722	-5,1707934985558099	4	-0,188145876	0,00866882131
2	0	0	1	0	5898,47	1,61104512	1,61164784	-5,5273695327341805	4	-0,222923234	0,00890817307
2	0	0	1	0	5904,98	1,54603624	1,5464381	-5,85522508745392	4	-0,259947002	0,00905474275
2	0	0	0	0	5911,48	1,48102748	1,48141849	-6,2182941474020557	4	-0,299180061	0,00921189599
2	0	0	0	0	5917,98	1,41601849	1,41653919	-6,5230407391985459	4	-0,340641588	0,009240143
2	0	0	1	0	5924,48	1,35100949	1,35141945	-6,8488314797480998	4	-0,384065568	0,00925564393
2	0	0	1	0	5930,98	1,28600073	1,28648996	-7,0977204789717939	4	-0,429506272	0,00913114659
2	0	0	0	0	5937,48	1,22099173	1,22163057	-7,3448642194271091	4	-0,476405472	0,00897271093
2	0	0	0	0	5943,98	1,15598285	1,15667117	-7,5834944273034355	4	-0,524792731	0,00877160951
2	0	0	1	0	5950,48	1,09097397	1,09152138	-7,7737898876269606	4	-0,574666739	0,00848525763
2	0	0	1	0	5956,98	1,02596486	1,02649188	-8,1086339379350362	4	-0,626425087	0,00832344685
2	0	0	0	0	5963,48	0,960956216	0,961442173	-8,3101107577482765	4	-0,679759443	0,00798969064
2	0	0	0	0	5969,98	0,895947278	0,896472752	-8,5587321519851686	4	-0,734464586	0,0076726703
2	0	0	0	0	5976,49	0,830938339	0,831342936	-8,7086132814486912	4	-0,790572166	0,00723984418
2	0	0	1	0	5982,99	0,765929461	0,766263366	-8,877899959683433	4	-0,848012328	0,00680280942
2	0	0	1	0	5989,49	0,700920522	0,701323867	-9,0641518111030272	4	-0,906398833	0,00635690615
2	0	0	0	0	5995,99	0,635911584	0,636414528	-9,1233918368816371	4	-0,965555251	0,00580625888
2	0	0	0	0	6002,49	0,570902705	0,57150507	-9,1773654744029184	4	-1,02519679	0,00524491072
2	0	0	1	0	6008,99	0,505893767	0,506195128	-9,2674385632078042	4	-1,08535433	0,00469113234
2	1	0	0	0	6015,41	0,558300972	0,558587253	-8,4536112025379994	4	-1,14234173	0,00472207926
2	1	0	0	0	6021,91	0,623309851	0,623767018	-7,8568223218123021	4	-1,19529808	0,00490082661
2	1	0	1	0	6028,41	0,688318789	0,68896687	-7,3716786354780198	4	-1,24476445	0,0050788424
2	1	0	1	0	6034,91	0,753327727	0,753635943	-6,9310346494118426	4	-1,2912178	0,00522347679
2	1	0	0	0	6041,41	0,818336606	0,818835795	-6,5291809837023488	4	-1,33496487	0,00534632709
2	1	0	0	0	6047,92	0,883345544	0,883815229	-6,1363155208528179	4	-1,37609494	0,00542336889
2	1	0	1	0	6054,42	0,948354483	0,948854983	-5,754489786922953	4	-1,4146775	0,00546017615
2	1	0	1	0	6060,92	1,01336324	1,01367414	-5,3478821764389862	4	-1,45077062	0,00542100985
2	1	0	0	0	6067,42	1,07837224	1,07886398	-4,9663273046414106	4	-1,48429036	0,00535799144
2	1	0	0	0	6073,92	1,143381	1,14393353	-4,5744529751439987	4	-1,51526713	0,00523287011
2	1	0	0	0	6080,42	1,20839	1,20906329	-4,175239055107024	4	-1,54371119	0,00504812831
2	1	0	1	0	6086,92	1,273399	1,27410293	-3,8040095878144198	4	-1,56968403	0,00484669954
2	1	0	1	0	6093,42	1,33840775	1,33874202	-3,449498539169632	4	-1,59327531	0,0046179886
2	1	0	0	0	6099,92	1,40341675	1,40400183	-3,1069934573024442	4	-1,6145575	0,0043622246
2	1	0	0	0	6106,42	1,46842575	1,46891129	-2,7641261145472598	4	-1,63359165	0,00406025583
2	1	0	1	0	6112,92	1,53343463	1,53405106	-2,4486840510120019	4	-1,65053403	0,00375640625
2	1	0	1	0	6119,43	1,59844339	1,59898043	-2,1322030108422042	4	-1,66543782	0,00340935099
2	1	0	0	0	6125,93	1,66345239	1,66395986	-1,8277252167463302	4	-1,67829001	0,00304126134
2	1	0	0	0	6132,43	1,72846127	1,72878921	-1,5334112253040112	4	-1,68920684	0,00265094475
2	1	0	1	0	6138,93	1,79347014	1,79417932	-1,2398302561293064	4	-1,69822288	0,00222447771
2	1	0	1	0	6145,43	1,85847914	1,85898852	-0,9522080142051017	4	-1,70533943	0,00177014375
2	1	0	1	0	6151,93	1,92348874	1,92393017	-0,67668244971614118	4	-1,71060991	0,00130188977
2	1	0	0	0	6158,47	1,98889709	1,9895885	-0,40188208548352166	4	-1,71412134	0,000799579953
2	1	0	0	0	6164,97	2,05390477	2,05442643	-0,14315535307882144	4	-1,71588516	0,000294102152
2	1	0	1	0	6171,63	2,12051511	2,12085938	0,11197943364580464	4	-1,71598494	0,000237492626
2	1	0	1	0	6178,13	2,18552279	2,18593764	0,35725287096898842	4	-1,71446002	0,000780932489
2	1	0	0	0	6184,63	2,25053263	2,25095844	0,59751058680315789	4	-1,71135294	0,00134497148
2	1	0	0	0	6191,14	2,31554174	2,3160882	0,84146842888246093	4	-1,70667326	0,00194891507
2	1	0	1	0	6197,68	2,38095069	2,38163853	1,0843064337968862	4	-1,70038152	0,00258242595
2	1	0	1	0	6204,18	2,44595981	2,44636774	1,322583093307915	4	-1,69257283	0,00323552452
2	1	0	0	0	6210,68	2,51096845	2,51148748	1,5714119710028131	4	-1,68316865	0,00394658139
2	1	0	0	0	6217,18	2,57597756	2,57646704	1,8458090281734842	4	-1,67209768	0,00475566601
2	1	0	1	0	6223,68	2,64098644	2,64148664	2,1204325966537053	4	-1,65920007	0,00560109457
2	1	0	1	0	6230,18	2,70599532	2,70667648	2,3946981597691738	4	-1,64451921	0,0064816731
2	1	0	0	0	6236,68	2,7710042	2,7715857	2,6915199756622314	4	-1,62792599	0,00745977834
2	1	0	0	0	6243,18	2,83601332	2,83670545	2,9544363828996794	4	-1,60957909	0,00838086568
2	1	0	1	0	6249,68	2,90102196	2,90159488	3,2297600470483162	4	-1,58946097	0,00937145483
2	1	0	1	0	6256,18	2,96603084	2,96649432	3,5141469463705875	4	-1,56754601	0,0104246968
2	1	0	0	0	6262,69	3,03103995	3,03153396	3,8023523734013197	4	-1,54376137	0,0115269599
2	1	0	0	0	6269,19	3,09604883	3,09676385	4,1233903293808256	4	-1,51806235	0,0127691664
2	1	0	0	0	6275,69	3,16105628	3,16128135	4,4960900255907962	4	-1,49009335	0,0142134055
2	1	0	1	0	6282,19	3,22606659	3,22658229	4,8138263995448794	4	-1,45980024	0,0155322067
2	1	0	1	0	6288,69	3,29107523	3,29139137	5,1526482875148358	4	-1,42749453	0,0169593822
2	1	0	0	0	6295,19	3,35608411	3,35657167	5,4430374838411718	4	-1,39306021	0,0182699449
2	1	0	0	0	6301,69	3,42109299	3,42164135	5,7730375975370266	4	-1,35653806	0,0197532643
2	1	0	1	0	6308,19	3,48610187	3,48655057	6,0419935745497421	4	-1,31822574	0,0210657157
2	1	0	1	0	6314,69	3,55111122	3,55148005	6,4227836057543475	4	-1,27733541	0,0228103884
2	1	0	0	0	6321,19	3,61611986	3,61648965	7,0417340050140928	4	-1,23322845	0,0254663583
2	1	0	0	0	6327,69	3,68112874	3,68168974	7,4797676255305562	4	-1,18608057	0,0275381841
2	1	0	1	0	6334,20	3,74613762	3,7466588	7,7660966043671117	4	-1,13647759	0,0290969145
2	1	0	1	0	6340,70	3,8111465	3,81167865	8,5017508491873882	4	-1,08360314	0,0324059427
2	1	0	0	0	6347,20	3,87615561	3,87658811	9,5702006394664346	4	-1,02475965	0,0370997265
2	1	0	0	0	6353,74	3,94156456	3,94189835	10,09687920659779	4	-0,960716903	0,0398008712
2	1	0	1	0	6360,24	4,0065732	4,00696802	10,78609345545368	4	-0,892599523	0,0432195328
2	1	0	1	0	6366,74	4,07158232	4,0720973	12,763012672464043	4	-0,816819429	0,051972229
2	1	0	1	0	6373,24	4,13659096	4,13718653	13,149185659224486	4	-0,732705235	0,054400634
2	0	0	0	1	6379,66	4,19919968	4,19983292	14,666669855515174	4	-0,644189954	0,0615975633
2	0	0	1	1	6386,16	4,13419104	4,13479376	13,439472953478499	4	-0,552400947	0,0555694476
2	0	0	1	1	6392,66	4,06918192	4,06957388	11,95916348944111	4	-0,470006138	0,0486687012
2	0	0	0	1	6399,16	4,00417328	4,00455475	10,753996891279997	4	-0,396032333	0,0430649705
2	0	0	0	1	6405,67	3,9391644	3,93962479	9,3923912346362995	4	-0,330647767	0,0370024964
2	0	0	1	1	6412,17	3,87415528	3,87478542	8,3007433563470835	4	-0,272976965	0,0321635976
2	0	0	1	1	6418,67	3,8091464	3,80961585	7,28233201305072	4	-0,222388923	0,0277428869
2	0	0	1	1	6425,17	3,74413824	3,74450707	6,4077105986359411	4	-0,177672863	0,0239937175
2	0	0	0	1	6431,67	3,67912865	3,67943645	5,5935287003715821	4	-0,138731346	0,0205810331
2	0	0	0	1	6438,21	3,61371899	3,61425471	4,8246971756368	4	-0,10464365	0,0174376853
2	0	0	1	1	6444,71	3,54871058	3,54940724	4,191593937575817	4	-0,0754539743	0,0148776742
2	0	0	1	1	6451,21	3,48370171	3,48416734	3,694342994441577	4	-0,0498468317	0,0128717097
2	0	0	0	1	6457,71	3,41869283	3,41932797	3,2726939680675712	4	-0,0272551104	0,0111904144
2	0	0	0	1	6464,21	3,35368395	3,35431862	2,9211015248050138	4	-0,00711909821	0,00979830511
2	0	0	1	1	6470,71	3,28867507	3,28888845	2,6390402453641072	4	0,0109163709	0,00867950916
2	0	0	1	1	6477,22	3,22366595	3,22426915	2,379679178819055	4	0,0271640886	0,00767272618
2	0	0	0	1	6483,72	3,15865707	3,15924978	2,1415159025539907	4	0,0418044142	0,00676558353
2	0	0	0	1	6490,22	3,09364843	3,09403992	1,9238056149333699	4	0,0550055541	0,00595233124
2	0	0	1	1	6496,72	3,02863955	3,02898049	1,7337958930681117	4	0,0668969303	0,00525163393
2	0	0	1	1	6503,22	2,96363044	2,96408105	1,5645802225917558	4	0,0776082501	0,00463754265
2	0	0	0	1	6509,72	2,8986218	2,89897132	1,4096021620805059	4	0,0872988328	0,00408639619
2	0	0	0	1	6516,22	2,83361268	2,83428216	1,2499582034846134	4	0,0959357843	0,00354273431
2	0	0	0	1	6522,72	2,76860428	2,76908207	1,0958459802641371	4	0,103533968	0,00303448737
2	0	0	1	1	6529,22	2,70359492	2,70416284	0,94206603306034611	4	0,110142708	0,00254749996
2	0	0	1	1	6535,72	2,63858604	2,63907313	0,79294839035719283	4	0,115788378	0,00209264876
2	0	0	0	1	6542,22	2,57357693	2,57394361	0,62590037565678362	4	0,120419301	0,00161103229
2	0	0	0	1	6548,76	2,50816822	2,50851321	0,43021408732359488	4	0,123898819	0,00107919774
2	0	0	1	1	6555,27	2,44315934	2,44362402	0,18687630696998304	4	0,125933528	0,000456655427
2	0	0	0	1	6560,39	2,39195275	2,39286447	-0,049123616578678362	4	0,126300678	0,000117546158