File: Experimentelles/Rohdaten/Batteriemessungen/AlteZelle/Studenten_Batterietests/Sonstige/ZView-Export/S vs Li_02_CV_C02_loop7.txt
EC-Lab ASCII FILE
Nb header lines : 3
mode	ox/red	error	control changes	counter inc.	time/s	control/V	Ewe/V	<I>/mA	cycle number	(Q-Qo)/C	P/W
2	0	0	1	0	8780,86	2,39425302	2,39542794	-0,02055450715124607	8	0	4,92368417E-005
2	0	0	0	0	8787,43	2,32854342	2,32898593	-0,33345544850453869	8	-0,00113259279	0,000776613073
2	0	0	0	0	8793,98	2,26303434	2,26361585	-0,70858937703693875	8	-0,00451168651	0,00160397415
2	0	0	1	0	8800,56	2,19722557	2,1980257	-1,1273767976090301	8	-0,0105490983	0,00247800327
2	0	0	1	0	8807,11	2,13171649	2,13220525	-1,5548619202648589	8	-0,0193323586	0,00331528485
2	0	0	0	0	8813,66	2,06620765	2,06657457	-2,0061657677094173	8	-0,0309579577	0,00414589094
2	0	0	0	0	8820,21	2,0006988	2,00144482	-2,5208292069534461	8	-0,0457712039	0,00504530035
2	0	0	1	0	8826,76	1,93518949	1,93570435	-3,0186109828452314	8	-0,0638827533	0,00584313832
2	0	0	1	0	8833,31	1,86968064	1,87015414	-3,4871259070932934	8	-0,0852048025	0,00652146293
2	0	0	0	0	8839,87	1,80417168	1,80474401	-3,9290115622182765	8	-0,109545268	0,00709086005
2	0	0	0	0	8846,42	1,73866272	1,73920345	-4,335648919145271	8	-0,136626974	0,00754057569
2	0	0	1	0	8852,97	1,67315376	1,67364323	-4,6445139298836435	8	-0,165980846	0,00777325919
2	0	0	1	0	8859,52	1,60764468	1,60804296	-4,982272052516521	8	-0,197592914	0,0080117071
2	0	0	0	0	8866,07	1,54213583	1,54243267	-5,294632100810617	8	-0,231348068	0,00816661306
2	0	0	0	0	8872,62	1,47662675	1,47704256	-5,6149076918761088	8	-0,267174184	0,00829345733
2	0	0	1	0	8879,17	1,41111779	1,41177261	-5,9296232101818022	8	-0,304905593	0,00837127957
2	0	0	1	0	8885,72	1,34560883	1,346012	-6,1892189110318938	8	-0,344661206	0,00833076332
2	0	0	0	0	8892,27	1,28009987	1,28052175	-6,4172999560832973	8	-0,386058867	0,00821749214
2	0	0	0	0	8898,82	1,21459091	1,21511173	-6,6485757653912077	8	-0,428860247	0,00807876233
2	0	0	1	0	8905,37	1,14908195	1,14974153	-6,794117763638496	8	-0,472982764	0,00781147927
2	0	0	1	0	8911,93	1,08357286	1,08411133	-6,9633916343251917	8	-0,517980933	0,00754909171
2	0	0	0	0	8918,48	1,0180639	1,0187912	-7,1388982112208909	8	-0,564163148	0,00727304677
2	0	0	0	0	8925,03	0,95255512	0,953140736	-7,2747213616967206	8	-0,61152488	0,00693383347
2	0	0	1	0	8931,58	0,887046099	0,887510359	-7,424044420321792	8	-0,659682572	0,00658891629
2	0	0	1	0	8938,13	0,821537018	0,821970105	-7,5726341033975334	8	-0,708917558	0,00622447906
2	0	0	0	0	8944,68	0,756028056	0,756439805	-7,6571008016665306	8	-0,758831859	0,00579213584
2	0	0	0	0	8951,23	0,690519154	0,69086951	-7,6466121350725581	8	-0,808902621	0,00528281135
2	0	0	1	0	8957,78	0,625010133	0,62558955	-7,6175180946787149	8	-0,858910501	0,00476543978
2	0	0	1	0	8964,33	0,559501112	0,55980891	-7,6578456684947162	8	-0,908839405	0,00428693043
2	1	0	0	0	8970,81	0,505293667	0,505634308	-7,6547522768378278	8	-0,958606422	0,00387050537
2	1	0	0	0	8977,37	0,570801973	0,571214736	-6,9905675566532467	8	-1,0064038	0,00399311539
2	1	0	1	0	8983,92	0,63631171	0,636985242	-6,5004875635107456	8	-1,05051076	0,00414071465
2	1	0	0	0	8990,47	0,701820672	0,702335298	-6,0576295914749248	8	-1,09163308	0,00425448688
2	1	0	0	0	8997,02	0,767329633	0,767755389	-5,6911965434749875	8	-1,13022768	0,00436944701
2	1	0	0	0	9003,57	0,832838833	0,833275199	-5,3246188677345645	8	-1,16634047	0,0044368729
2	1	0	1	0	9010,12	0,898347676	0,898715854	-4,9325149754683366	8	-1,19995117	0,00443292921
2	1	0	1	0	9016,67	0,963855505	0,964446366	-4,5592867287441549	8	-1,23108888	0,00439718738
2	1	0	0	0	9023,22	1,02936554	1,02994657	-4,2389358902971066	8	-1,25989032	0,00436587725
2	1	0	0	0	9029,77	1,09487426	1,09542668	-3,9015542943362893	8	-1,28652239	0,00427386677
2	1	0	1	0	9036,32	1,16038346	1,16088688	-3,5740426729122989	8	-1,31103134	0,0041490593
2	1	0	1	0	9042,87	1,22589254	1,2266475	-3,2560075956086368	8	-1,33342743	0,0039939736
2	1	0	0	0	9049,43	1,29140139	1,29178727	-2,9543599182119066	8	-1,3537519	0,00381640461
2	1	0	0	0	9055,98	1,35691118	1,35738885	-2,6762367783207565	8	-1,37216544	0,00363269402
2	1	0	1	0	9062,53	1,42241943	1,42278779	-2,3984378116826192	8	-1,38876748	0,00341246813
2	1	0	1	0	9069,08	1,48792839	1,48839819	-2,1297377993663139	8	-1,40360558	0,00316989794
2	1	0	0	0	9075,63	1,55343735	1,55385828	-1,8732083278397766	8	-1,4166857	0,00291070016
2	1	0	0	0	9082,18	1,61894631	1,61916828	-1,6248320645342282	8	-1,42813289	0,00263087661
2	1	0	1	0	9088,73	1,68445528	1,68483889	-1,3839994256074277	8	-1,43797243	0,00233181613
2	1	0	1	0	9095,28	1,74996424	1,75051928	-1,1453003097946421	8	-1,44624162	0,00200487021
2	1	0	0	0	9101,83	1,8154732	1,81603944	-0,90891815256327744	8	-1,45295978	0,00165063119
2	1	0	0	0	9108,38	1,88098204	1,88146949	-0,68525785719975514	8	-1,45817363	0,00128929177
2	1	0	1	0	9114,97	1,94689119	1,94727027	-0,46736159175634387	8	-1,46196759	0,00091007934
2	1	0	1	0	9121,52	2,01240063	2,01289034	-0,25829377137123501	8	-1,46433377	0,000519917055
2	1	0	0	0	9128,08	2,07790923	2,07846117	-0,051753678533714266	8	-1,46534228	0,000107568012
2	1	0	1	0	9134,79	2,14501834	2,14558339	0,1519337488183128	8	-1,46500707	0,000325986533
2	1	0	1	0	9141,34	2,21052742	2,21087337	0,34861698164604602	8	-1,4633646	0,000770748011
2	1	0	0	0	9147,89	2,2760365	2,27674413	0,54635459401955136	8	-1,4604286	0,00124390959
2	1	0	0	0	9154,44	2,34154534	2,34205413	0,74230695391694912	8	-1,45621419	0,00173852302
2	1	0	1	0	9160,99	2,40705419	2,40737391	0,94336344425876634	8	-1,45070326	0,00227102847
2	1	0	1	0	9167,57	2,4728632	2,47320485	1,1580522498115898	8	-1,44380271	0,0028641005
2	1	0	0	0	9174,12	2,53837228	2,53890538	1,3648493175829426	8	-1,43552244	0,00346522336
2	1	0	0	0	9180,67	2,60388136	2,60424519	1,5877341621865818	8	-1,42586219	0,00413484918
2	1	0	1	0	9187,22	2,6693902	2,66975546	1,8209213372319936	8	-1,41467416	0,0048614149
2	1	0	1	0	9193,77	2,73489928	2,73556614	2,0624730885028803	8	-1,40193808	0,00564203132
2	1	0	1	0	9200,33	2,80040812	2,80102658	2,3257977593909872	8	-1,38755786	0,00651462143
2	1	0	0	0	9206,88	2,86591721	2,86647677	2,5823247022926736	8	-1,37144017	0,00740217371
2	1	0	1	0	9213,43	2,93142605	2,93193674	2,8489834915101539	8	-1,35361767	0,00835303962
2	1	0	1	0	9219,98	2,99693513	2,99725676	3,1226554332921914	8	-1,33407617	0,00935939979
2	1	0	0	0	9226,53	3,06244469	3,0628581	3,3503142308737498	8	-1,31285131	0,0102615375
2	1	0	0	0	9233,08	3,12795281	3,12861753	3,6064871164659565	8	-1,29006732	0,0112833185
2	1	0	0	0	9239,63	3,19346142	3,19380689	3,8692998954692666	8	-1,26570725	0,0123577965
2	1	0	1	0	9246,18	3,25897098	3,25941777	4,1681118011474611	8	-1,23954773	0,0135856178
2	1	0	0	0	9252,73	3,32447982	3,32500815	4,4284259316821843	8	-1,21130764	0,0147245526
2	1	0	0	0	9259,28	3,38998914	3,39040828	4,7047439639766893	8	-1,18124914	0,015951002
2	1	0	1	0	9265,83	3,4554987	3,45611048	4,8813665552517594	8	-1,14935482	0,0168705415
2	1	0	1	0	9272,39	3,52100682	3,52151871	4,9861386455595354	8	-1,11633909	0,0175587814
2	1	0	1	0	9278,94	3,58651519	3,58704734	5,4721385041101766	8	-1,08202088	0,0196288191
2	1	0	0	0	9285,49	3,65202498	3,65248942	5,8596710562705856	8	-1,04485893	0,0214023869
2	1	0	0	0	9292,04	3,71753263	3,71821856	6,1439104785478874	8	-1,0058558	0,0228444021
2	1	0	1	0	9298,59	3,78304267	3,78341961	6,559006998936311	8	-0,964085758	0,0248154756
2	1	0	0	0	9305,14	3,8485527	3,84892178	7,4749154857345203	8	-0,917918324	0,0287703648
2	1	0	0	0	9311,69	3,91406059	3,91457033	8,0101072887579226	8	-0,867080569	0,0313561298
2	1	0	0	0	9318,24	3,97956991	3,98014116	9,0838355495589235	8	-0,810714543	0,0361549482
2	1	0	1	0	9324,79	4,04507875	4,04568052	9,5890685766935206	8	-0,749617696	0,0387943089
2	1	0	0	0	9331,38	4,11098814	4,11153126	10,940046296309885	8	-0,681570053	0,0449803434
2	1	0	0	0	9337,93	4,17649698	4,17727184	11,350959802667232	8	-0,608204246	0,0474160463
2	0	0	1	1	9344,42	4,15869427	4,15916729	10,901692469914742	8	-0,535035193	0,0453419611
2	0	0	0	1	9350,97	4,09318542	4,09374714	10,224244028329827	8	-0,465146184	0,0418554693
2	0	0	0	1	9357,52	4,02767658	4,02818727	9,3783284624417715	8	-0,400868952	0,0377776623
2	0	0	1	1	9364,07	3,96216726	3,96262646	8,4383814831574566	8	-0,342671394	0,0334381536
2	0	0	1	1	9370,62	3,89665842	3,89708614	7,4149645492434214	8	-0,290456831	0,0288967565
2	0	0	0	1	9377,17	3,83114958	3,83166575	6,5399324297904973	8	-0,244834527	0,0250588357
2	0	0	0	1	9383,72	3,76564026	3,76627588	5,7052604618171757	8	-0,204819039	0,0214875843
2	0	0	1	1	9390,31	3,69973135	3,70016503	4,9308207929134227	8	-0,169880003	0,0182448514
2	0	0	1	1	9396,86	3,63422251	3,63466477	4,367083909610912	8	-0,139431775	0,0158728864
2	0	0	0	1	9403,41	3,56871319	3,56941462	3,797336251785367	8	-0,112684287	0,0135542676
2	0	0	0	1	9409,97	3,50320435	3,50373411	3,4368563741445613	8	-0,0890305787	0,0120418305
2	0	0	1	1	9416,52	3,4376955	3,43814397	3,0687231551855731	8	-0,0677925944	0,0105507122
2	0	0	1	1	9423,07	3,37218666	3,3725636	2,7695458171268291	8	-0,0486607812	0,00934046973
2	0	0	0	1	9429,62	3,30667734	3,30705333	2,5237462663402131	8	-0,0313235447	0,00834616367
2	0	0	0	1	9436,17	3,24116826	3,24159336	2,2897895276546477	8	-0,0155861173	0,00742256641
2	0	0	1	1	9442,72	3,17565942	3,17617297	2,1018939204514061	8	-0,00122813892	0,00667597866
2	0	0	1	1	9449,27	3,11015058	3,11073303	1,9324073195457424	8	0,0119014308	0,0060112034
2	0	0	0	1	9455,82	3,04464173	3,04521275	1,7397514296074698	8	0,0239089187	0,00529791322
2	0	0	0	1	9462,37	2,97913289	2,97954226	1,5734013865391389	8	0,0347493999	0,00468801614
2	0	0	1	1	9468,92	2,91362381	2,91421223	1,4228841153283885	8	0,0445174426	0,00414658617
2	0	0	1	1	9475,47	2,84811497	2,84867191	1,2776792319491488	8	0,0533800647	0,00363968895
2	0	0	0	1	9482,03	2,78260589	2,78309155	1,110461700086792	8	0,0612036027	0,00309051666
2	0	0	0	1	9488,58	2,71709681	2,71756124	0,93846561852842394	8	0,0679273605	0,0025503377
2	0	0	1	1	9495,13	2,65158796	2,65207124	0,78243020114799219	8	0,0735830516	0,00207506074
2	0	0	1	1	9501,68	2,58607888	2,5865109	0,60156194710483034	8	0,0781349167	0,00155594654
2	0	0	0	1	9508,27	2,52016973	2,52054	0,41589094791561274	8	0,0815001205	0,0010482698
2	0	0	0	1	9514,82	2,45466089	2,45536017	0,21261351283950125	8	0,0835815296	0,000522042741
2	0	0	1	1	9520,82	2,39465308	2,39510751	-0,007691615977539465	8	0,0842093602	1,84222463E-005