File: Experimentelles/Rohdaten/Batteriemessungen/AlteZelle/150511_LLTO_LTO_Tests/ZView-Export/LLTO_LP30_LTO_05_GCPL_C01_loop8.txt
EC-Lab ASCII FILE
Nb header lines : 3
mode	ox/red	error	control changes	Ns changes	counter inc.	Ns	time/s	control/V/mA	Ewe/V	dq/mA.h	<I>/mA	P/W	(Q-Qo)/mA.h	x	Capacity/mA.h
1	0	0	1	1	0	1	321971,19	-0,0100000007	2,61693025	0	0	0	0	0	0
1	0	0	1	0	0	1	322671,20	-0,0100000007	1,81018937	-2,7755016955909219E-005	-0,0099916137165247782	1,80867137E-005	-0,0019427641459481395	7,2487142359500019E-005	0,0019427641459481395
1	0	0	1	0	0	1	323371,22	-0,0100000007	1,47075832	-2,7755964367443488E-005	-0,009991954777761047	1,46957509E-005	-0,0038856749880879309	0,0001449797581511457	0,0038856749880879309
1	0	0	1	0	0	1	324071,23	-0,0100000007	1,23990095	-2,7755944535187962E-005	-0,009991947638635488	1,2389025E-005	-0,005828590937242368	0,00021747256449237424	0,005828590937242368
1	0	0	1	0	0	1	324771,24	-0,0100000007	1,06193638	-2,7755917505309398E-005	-0,009991937907601289	1,06108027E-005	-0,007771502367730039	0,0002899652022360704	0,007771502367730039
1	0	0	1	0	0	1	325471,26	-0,0100000007	0,91908735	-2,7758203900367434E-005	-0,0099927609939736896	9,18422029E-006	-0,0097144753258676787	0,00036246013565911162	0,0097144753258676787
1	1	0	0	0	0	2	326151,80	0,0100000007	1,45625889	2,77966178814984E-005	0,010006589761374518	1,45721851E-005	-0,0084368880900167782	0,00031479163815520698	0,001584402834182864
1	1	0	0	0	0	2	326851,82	0,0100000007	1,7928257	2,7796004487770714E-005	0,010006368943418422	1,79396757E-005	-0,0064911203288814106	0,0002421924268746679	0,0035301705953182362
1	1	0	0	0	0	2	327551,83	0,0100000007	2,00859833	2,7796750418945318E-005	0,010006637473936707	2,00993145E-005	-0,0045453307641629677	0,00016959240207312902	0,0054759601600366803
1	1	0	0	0	0	2	328251,84	0,0100000007	2,14401937	2,7796356562369811E-005	0,01000649568795013	2,14541196E-005	-0,0025995467575096666	9,6992584650473549E-005	0,0074217441666899827
1	1	0	0	0	0	2	328951,86	0,0100000007	2,23413467	2,7797784018382016E-005	0,010007009562569387	2,23570078E-005	-0,00065374412080127539	2,4392072115414266E-005	0,009367546803398377
1	1	0	0	0	0	2	329651,87	0,0100000007	2,29640317	2,7798516969610422E-005	0,010007273419698067	2,29807338E-005	0,0012920754100968085	-4,8209070764576928E-005	0,011313366334296458
1	1	0	0	0	0	2	330351,88	0,0100000007	2,33844995	2,7797821746156038E-005	0,010007023144306518	2,34009221E-005	0,0032379347388007635	-0,00012081169855421392	0,013259225663000413
1	1	0	0	0	0	2	331051,90	0,0100000007	2,36965108	2,7797688157763328E-005	0,010006975053411131	2,37130389E-005	0,0051837759701078304	-0,0001934136511056408	0,015205066894307485
1	1	0	0	0	0	2	331751,91	0,0100000007	2,39598298	2,7797697913212083E-005	0,010006978564839083	2,39765504E-005	0,0071296255921123955	-0,0002660159167252727	0,017150916516312038
1	1	0	0	0	0	2	332451,93	0,0100000007	2,41862965	2,7797776258602323E-005	0,010007006769102486	2,42032438E-005	0,0090754740182828851	-0,00033861813772672749	0,019096764942482528
1	1	0	0	0	0	2	333151,94	0,0100000007	2,43818283	2,7797840451562986E-005	0,010007029877773877	2,43989689E-005	0,01102130933463776	-0,00041121986958333536	0,021042600258837382
1	1	0	0	0	0	2	333851,95	0,0100000007	2,45567369	2,7797123378608374E-005	0,010006771736830189	2,45733663E-005	0,012967132461805379	-0,00048382114664497811	0,022988423386004976
1	1	0	0	0	0	2	334551,97	0,0100000007	2,47075868	2,7797152762404749E-005	0,010006782314560221	2,47243443E-005	0,014912918733359181	-0,00055642104857411648	0,024934209657558771
1	1	0	0	0	0	2	335251,98	0,0100000007	2,48429704	2,7796574594349498E-005	0,010006574178300965	2,48593024E-005	0,016858700892417968	-0,00062902079706053645	0,026879991816617546
1	1	0	0	0	0	2	335951,99	0,0100000007	2,49632668	2,7796350563772851E-005	0,010006493528380315	2,49794775E-005	0,018804456996411507	-0,00070161957339744077	0,028825747920611085
1	1	0	0	0	0	2	336652,01	0,0100000007	2,50719166	2,7796944661842038E-005	0,010006707399567141	2,50887333E-005	0,02075020330680721	-0,00077421798432204211	0,03077149423100679
1	1	0	0	0	0	2	337352,02	0,0100000007	2,51712108	2,779592249676999E-005	0,010006339427692443	2,51871679E-005	0,022695954377217126	-0,00084681657284917376	0,032717245301416685
1	1	0	0	0	0	2	338052,03	0,0100000007	2,52617216	2,7796467966400086E-005	0,010006535792628816	2,5278232E-005	0,024641664549984003	-0,000919413635430256	0,034662955474183584
1	1	0	0	0	0	2	338752,05	0,0100000007	2,5346694	2,7795632399411664E-005	0,010006234994654294	2,53624985E-005	0,026587365747618656	-0,00099201036313708787	0,036608656671818272
1	1	0	0	0	0	2	339452,06	0,0100000007	2,54232645	2,7796431422647504E-005	0,010006522637247683	2,54398474E-005	0,028533087486382586	-0,0010646078572610709	0,038554378410582208
1	1	0	0	0	0	2	340152,07	0,0100000007	2,54939151	2,7796812941268499E-005	0,010006659981539672	2,55108935E-005	0,030478832703509811	-0,0011372062273943554	0,040500123627709395
1	1	0	0	0	0	2	340852,09	0,0100000007	2,55605555	2,7797033486525629E-005	0,010006739375837533	2,55777813E-005	0,032424609738004467	-0,0012098057846763978	0,042445900662204064
1	1	0	0	0	0	2	341552,10	0,0100000007	2,56218505	2,7796566138509661E-005	0,010006571133791277	2,56386866E-005	0,034370389683890842	-0,0012824054505863792	0,044391680608090432
1	1	0	0	0	0	2	342252,11	0,0100000007	2,56779909	2,7797015904190224E-005	0,010006733046784629	2,56952808E-005	0,036316179873982349	-0,0013550054987214282	0,046337470798181946
1	1	0	0	0	0	2	342952,13	0,0100000007	2,572649	2,7797220689761968E-005	0,010006806767937974	2,57440006E-005	0,038261963262032794	-0,0014276052930631792	0,04828325418623239
1	1	0	0	0	0	2	343652,14	0,0100000007	2,57740378	2,7796413107309491E-005	0,010006516044085931	2,57908323E-005	0,040207731809858099	-0,0015002045336961776	0,050229022734057696
1	1	0	0	0	0	2	344352,15	0,0100000007	2,58185291	2,7796726875628032E-005	0,010006628998156208	2,58356449E-005	0,042153496552860717	-0,0015728036323661258	0,052174787477060307
1	1	0	0	0	0	2	345052,17	0,0100000007	2,58611107	2,7796224845366349E-005	0,010006448271091363	2,58777873E-005	0,04409924129489895	-0,0016454019847732013	0,054120532219098541
1	1	0	0	0	0	2	345752,18	0,0100000007	2,5900445	2,7796733987931578E-005	0,010006631558419694	2,59176213E-005	0,046044985278375181	-0,0017180003088773088	0,056066276202574778
1	1	0	0	0	0	2	346452,19	0,0100000007	2,59390163	2,7796344722000259E-005	0,010006491425382675	2,59558547E-005	0,047990741706231808	-0,0017905990972979802	0,058012032630431398
1	1	0	0	0	0	2	347152,21	0,0100000007	2,5977397	2,7796762681928358E-005	0,0100066418885256	2,59946501E-005	0,049936466192621587	-0,0018631966939395779	0,059957757116821184
1	1	0	0	0	0	2	347852,22	0,0100000007	2,60138702	2,7796060221476688E-005	0,010006389007399222	2,60304914E-005	0,051882201170088826	-0,0019357946820173808	0,061903492094288422
1	1	0	0	0	0	2	348552,24	0,0100000007	2,60472846	2,779585089456911E-005	0,010006313651396446	2,60637298E-005	0,053827929725421306	-0,0020083924304767014	0,063849220649620838
1	1	0	0	0	0	2	349252,25	0,0100000007	2,60807014	2,7796140623951539E-005	0,010006417951616362	2,60974393E-005	0,055773691804409338	-0,0020809914297486835	0,065794982728608883
1	1	0	0	0	0	2	349952,26	0,0100000007	2,61102986	2,7796562578063456E-005	0,010006569852521283	2,61274527E-005	0,057719451005725491	-0,0021535903216508592	0,06774074192992503
1	1	0	0	0	0	2	350652,28	0,0100000007	2,61377954	2,7796279312525357E-005	0,010006467878425107	2,61547011E-005	0,059665209392118477	-0,0022261891831471555	0,069686500316318054
1	1	0	0	0	0	2	351352,29	0,0100000007	2,61666298	2,7796422029483235E-005	0,01000651925554068	2,61836885E-005	0,061610947602038528	-0,0022987872918321187	0,071632238526238106
1	1	0	0	0	0	2	352052,30	0,0100000007	2,61962247	2,7796638389221494E-005	0,010006597144012682	2,62135072E-005	0,06355668973794423	-0,0023713855470008858	0,073577980662143846
1	1	0	0	0	0	2	352752,32	0,0100000007	2,62221956	2,7796440502939126E-005	0,010006525906089725	2,62393078E-005	0,065502425406801152	-0,0024439835608753674	0,075523716331000755
1	1	0	0	0	0	2	353452,33	0,0100000007	2,62474012	2,7796237467270762E-005	0,010006452814889461	2,62643389E-005	0,067448181756374758	-0,0025165823463751946	0,077469472680574374
1	1	0	0	0	0	2	354152,34	0,0100000007	2,62684035	2,7796340302771165E-005	0,010006489834607322	2,62854519E-005	0,069393926893653965	-0,0025891807135292416	0,079415217817853568
1	1	0	0	0	0	2	354852,36	0,0100000007	2,62886453	2,7795861453697501E-005	0,010006317452609475	2,63052534E-005	0,071339638465312525	-0,0026617778283048538	0,081360929389512128
1	1	0	0	0	0	2	355552,37	0,0100000007	2,63107944	2,7796422097676742E-005	0,010006519280089867	2,63279471E-005	0,073285356427006874	-0,0027343751815012922	0,083306647351206477
1	1	0	0	0	0	2	356252,38	0,0100000007	2,63329458	2,7796294331705818E-005	0,010006473285691918	2,63499915E-005	0,075231060243749965	-0,0028069720069305814	0,085252351167949581
1	1	0	0	0	0	2	356952,40	0,0100000007	2,63575768	2,7796611534897238E-005	0,010006587476642091	2,63749407E-005	0,077176775138127066	-0,0028795692456812893	0,087198066062326682
1	1	0	0	0	0	2	357652,41	0,0100000007	2,63797283	2,7795596571121782E-005	0,010006222096252342	2,63961429E-005	0,079122537912588979	-0,0029521682709023373	0,089143828836788595
1	1	0	0	0	0	2	358352,42	0,0100000007	2,64013052	2,7796741017606109E-005	0,01000663408951976	2,64188202E-005	0,081068297012061568	-0,003024767159004592	0,091089587936261184
1	1	0	0	0	0	2	359052,44	0,0100000007	2,64228821	2,7796122208185907E-005	0,010006411322068384	2,64398222E-005	0,083014084665523123	-0,003097367112494567	0,093035375589722726
1	1	0	0	0	0	2	359752,45	0,0100000007	2,64425492	2,7796440150330048E-005	0,010006525779385878	2,64598057E-005	0,084959857214115904	-0,0031699665024015789	0,094981148138315507
1	1	0	0	0	0	2	360452,46	0,0100000007	2,64622188	2,7796767284317565E-005	0,010006643544887851	2,64797982E-005	0,086905619366222528	-0,0032425655044017139	0,096926910290422131
1	1	0	0	0	0	2	361152,48	0,0100000007	2,64805484	2,7796645989434589E-005	0,010006599880036714	2,64980245E-005	0,088851385972588211	-0,0033151646725962438	0,098872676896787814
1	1	0	0	0	0	2	361581,77	0,0100000007	2,64927697	2,5795329857876317E-005	0,010006600791669618	2,65102572E-005	0,090044647440531546	-0,0033596868623223162	0,10006593836473115