File: Experimentelles/Rohdaten/Batteriemessungen/AlteZelle/150511_LLTO_LTO_Tests/ZView-Export/LLTO_LP30_LTO_04_OCV_C01_loop0.txt
EC-Lab ASCII FILE
Nb header lines : 3
mode	error	time/s	Ewe/V
3	0	9243,50	0,320913911
3	0	9258,50	0,507108331
3	0	9273,50	0,598993063
3	0	9288,50	0,665882528
3	0	9303,50	0,716102123
3	0	9318,50	0,756201386
3	0	9333,50	0,789961219
3	0	9348,50	0,818947256
3	0	9363,50	0,84478271
3	0	9378,50	0,86756289
3	0	9393,50	0,888166308
3	0	9408,50	0,906898439
3	0	9423,50	0,924122036
3	0	9438,50	0,940066278
3	0	9453,50	0,95463568
3	0	9468,50	0,96788758
3	0	9483,50	0,980299234
3	0	9498,50	0,991527021
3	0	9513,50	1,00195289
3	0	9528,50	1,01142395
3	0	9543,50	1,02026486
3	0	9558,50	1,02859032
3	0	9573,50	1,03617096
3	0	9588,50	1,04352248
3	0	9603,50	1,05011022
3	0	9618,50	1,05633521
3	0	9633,50	1,06217825
3	0	9648,50	1,06777298
3	0	9663,50	1,07300508
3	0	9678,50	1,07798886
3	0	9693,50	1,08262885
3	0	9708,50	1,08702075
3	0	9723,50	1,09129798
3	0	9738,50	1,09542251
3	0	9753,50	1,09926057
3	0	9768,50	1,1029458
3	0	9783,50	1,10661209
3	0	9798,50	1,11001098
3	0	9813,50	1,11335254
3	0	9828,50	1,11657965
3	0	9843,50	1,1197685
3	0	9858,50	1,12276638
3	0	9873,50	1,12561154
3	0	9888,50	1,12849486
3	0	9903,50	1,13112998
3	0	9918,50	1,13387966
3	0	9933,50	1,1364001
3	0	9948,50	1,13874876
3	0	9963,50	1,14104021
3	0	9978,50	1,14336979
3	0	9993,50	1,145432
3	0	10008,50	1,1474179
3	0	10023,50	1,14917457
3	0	10038,50	1,15102684
3	0	10053,50	1,15264988
3	0	10068,50	1,15404379
3	0	10083,50	1,15522766
3	0	10098,50	1,15622067
3	0	10113,50	1,15711808
3	0	10128,50	1,157691
3	0	10143,50	1,15772915
3	0	10158,50	1,1577673
3	0	10173,50	1,15736639
3	0	10188,50	1,15671706
3	0	10203,50	1,15570509
3	0	10218,50	1,15440667
3	0	10233,50	1,15276444
3	0	10248,50	1,15087402
3	0	10263,50	1,14862084
3	0	10278,50	1,14623404
3	0	10293,50	1,14314067
3	0	10308,50	1,13968444
3	0	10323,50	1,13525438
3	0	10338,50	1,13032794
3	0	10353,50	1,12505782
3	0	10368,50	1,11957753
3	0	10383,50	1,11367714
3	0	10398,50	1,10764325
3	0	10413,50	1,1014564
3	0	10428,50	1,09498334
3	0	10443,50	1,08841467
3	0	10458,50	1,08180785
3	0	10473,50	1,07531548
3	0	10488,50	1,06851768
3	0	10503,50	1,06198728
3	0	10518,50	1,0555141
3	0	10533,50	1,0489645
3	0	10548,50	1,04281604
3	0	10563,50	1,03643835
3	0	10578,50	1,03046155
3	0	10593,50	1,02454221
3	0	10608,50	1,01875639
3	0	10623,50	1,01298976
3	0	10638,50	1,00756681
3	0	10653,50	1,00212479
3	0	10668,50	0,996835411
3	0	10683,50	0,991813481
3	0	10698,50	0,986772418
3	0	10713,50	0,981903195
3	0	10728,50	0,977072179
3	0	10743,50	0,97239393
3	0	10758,50	0,967983007
3	0	10773,50	0,963400245
3	0	10788,50	0,959103882
3	0	10803,50	0,9548648
3	0	10818,50	0,950759411
3	0	10833,50	0,946692228
3	0	10848,50	0,942510426
3	0	10863,50	0,938634157
3	0	10878,50	0,934776962
3	0	10893,50	0,931034386
3	0	10908,50	0,927425444
3	0	10923,50	0,923644662
3	0	10938,50	0,920112073
3	0	10953,50	0,916579545
3	0	10968,50	0,912913322
3	0	10983,50	0,909438014
3	0	10998,50	0,906096458
3	0	11013,50	0,902659357
3	0	11028,50	0,899317741
3	0	11043,50	0,895804286
3	0	11058,50	0,892596364
3	0	11073,50	0,889407456
3	0	11088,50	0,886084974
3	0	11103,50	0,883010685
3	0	11118,50	0,87966907
3	0	11133,50	0,876575708
3	0	11148,50	0,873596907
3	0	11163,50	0,870484412
3	0	11178,50	0,86733377
3	0	11193,50	0,864354968
3	0	11208,50	0,861376166
3	0	11223,50	0,858301878
3	0	11238,50	0,855437636
3	0	11253,50	0,852420628
3	0	11268,50	0,849499106
3	0	11283,50	0,846673071
3	0	11298,50	0,843713403
3	0	11313,50	0,840639114
3	0	11328,50	0,837965786
3	0	11343,50	0,835158885
3	0	11358,50	0,83227551
3	0	11373,50	0,829583168
3	0	11388,50	0,82662344
3	0	11403,50	0,823854685
3	0	11418,50	0,821181357
3	0	11433,50	0,818298042
3	0	11448,50	0,81566298
3	0	11463,50	0,812989652
3	0	11478,50	0,810220897
3	0	11493,50	0,807528496
3	0	11508,50	0,804950714
3	0	11523,50	0,802201033
3	0	11538,50	0,799623251
3	0	11553,50	0,796969056
3	0	11568,50	0,794410348
3	0	11583,50	0,791775227
3	0	11598,50	0,789216518
3	0	11613,50	0,786619604
3	0	11628,50	0,784251809
3	0	11643,50	0,781578541
3	0	11658,50	0,779210806
3	0	11673,50	0,776461124
3	0	11688,50	0,77403605
3	0	11703,50	0,771763742
3	0	11718,50	0,769415081
3	0	11733,50	0,766932726
3	0	11748,50	0,764660478
3	0	11763,50	0,76215905
3	0	11778,50	0,759695768
3	0	11793,50	0,7574808
3	0	11808,50	0,754998446
3	0	11823,50	0,752745211
3	0	11838,50	0,75033927
3	0	11853,50	0,748200655
3	0	11868,50	0,74600476
3	0	11883,50	0,743732452
3	0	11898,50	0,741555631
3	0	11913,50	0,739283323
3	0	11928,50	0,737125576
3	0	11943,50	0,735044241
3	0	11958,50	0,73286742
3	0	11973,50	0,730767012
3	0	11988,50	0,72864747
3	0	12003,50	0,726508856
3	0	12018,50	0,724427462
3	0	12033,50	0,722384334
3	0	12048,50	0,720302999
3	0	12063,50	0,718298018
3	0	12078,50	0,716445804
3	0	12093,50	0,714326262
3	0	12108,50	0,712493181
3	0	12123,50	0,71043092
3	0	12138,50	0,708521426
3	0	12153,50	0,706726491
3	0	12168,50	0,70483613
3	0	12183,50	0,702888429
3	0	12198,50	0,701093495
3	0	12213,50	0,699184
3	0	12228,50	0,697312713
3	0	12243,50	0,695536911
3	0	12258,50	0,693799257
3	0	12273,50	0,692023456
3	0	12288,50	0,690266728
3	0	12303,50	0,688548148
3	0	12318,50	0,686715066
3	0	12333,50	0,685072899
3	0	12348,50	0,683277965
3	0	12363,50	0,681750357
3	0	12378,50	0,679936349
3	0	12393,50	0,678294182
3	0	12408,50	0,676652014
3	0	12423,50	0,674952567
3	0	12438,50	0,673463166
3	0	12453,50	0,671897411
3	0	12468,50	0,670121551
3	0	12483,50	0,66863215
3	0	12498,50	0,666951835
3	0	12513,50	0,665405154
3	0	12528,50	0,663801134
3	0	12543,50	0,662292659
3	0	12558,50	0,660841465
3	0	12573,50	0,659256577
3	0	12588,50	0,657805383
3	0	12603,50	0,656354129
3	0	12618,50	0,655055702
3	0	12633,50	0,653585374
3	0	12648,50	0,65219146
3	0	12663,50	0,650702059
3	0	12678,50	0,649308145
3	0	12693,50	0,647837818
3	0	12708,50	0,646615744
3	0	12723,50	0,645145416
3	0	12738,50	0,643885195
3	0	12753,50	0,642491221
3	0	12768,50	0,641211867
3	0	12783,50	0,639932513
3	0	12798,50	0,638576806
3	0	12813,50	0,637392879
3	0	12828,50	0,636132658
3	0	12843,50	0,634815097