File: Experimentelles/Rohdaten/Batteriemessungen/AlteZelle/150511_LLTO_LTO_Tests/ZView-Export/LLTO_LP30_LTO_01_OCV_C01_loop0.txt
EC-Lab ASCII FILE
Nb header lines : 3
mode	error	time/s	Ewe/V
3	1	0,00	0,28238678
3	0	5,00	0,282253116
3	0	10,00	0,282062173
3	0	15,00	0,281737566
3	0	20,00	0,281527519
3	0	25,00	0,281279296
3	0	30,00	0,281183809
3	0	35,00	0,281011939
3	0	40,00	0,280725539
3	0	45,00	0,280496389
3	0	50,00	0,280439109
3	0	55,00	0,280171782
3	0	60,00	0,280171782
3	0	65,00	0,279980838
3	0	70,00	0,279579848
3	0	75,00	0,279637128
3	0	80,00	0,279427081
3	0	85,00	0,279197931
3	0	90,00	0,279026091
3	0	95,00	0,278911501
3	0	100,00	0,278663278
3	0	105,00	0,278644174
3	0	110,00	0,278434128
3	0	115,00	0,278166801
3	0	120,00	0,278109521
3	0	125,00	0,277842194
3	0	130,00	0,2778804
3	0	135,00	0,277804017
3	0	140,00	0,277632147
3	0	145,00	0,2774221
3	0	150,00	0,27730754
3	0	155,00	0,277173877
3	0	160,00	0,277040213
3	0	165,00	0,276925653
3	0	170,00	0,276811063
3	0	175,00	0,2766774
3	0	180,00	0,276543736
3	0	185,00	0,276486456
3	0	190,00	0,276257336
3	0	195,00	0,276180953
3	0	200,00	0,276085466
3	0	205,00	0,275856316
3	0	210,00	0,275856316
3	0	215,00	0,275703579
3	0	220,00	0,275608093
3	0	225,00	0,275455326
3	0	230,00	0,275359869
3	0	235,00	0,275264382
3	0	240,00	0,275149822
3	0	245,00	0,275111616
3	0	250,00	0,274958879
3	0	255,00	0,274901569
3	0	260,00	0,274863392
3	0	265,00	0,274576962
3	0	270,00	0,274653345
3	0	275,00	0,274424225
3	0	280,00	0,274481505
3	0	285,00	0,274290532
3	0	290,00	0,274271458
3	0	295,00	0,274214178
3	0	300,00	0,274118692
3	0	305,00	0,274004132
3	0	310,00	0,273889542
3	0	315,00	0,273927748
3	0	320,00	0,273851365
3	0	325,00	0,273698598
3	0	330,00	0,273660421
3	0	335,00	0,273584038
3	0	340,00	0,273412168
3	0	345,00	0,273297608
3	0	350,00	0,273183048
3	0	355,00	0,273240328
3	0	360,00	0,273068458
3	0	365,00	0,272934794
3	0	370,00	0,272858441
3	0	375,00	0,272877514
3	0	380,00	0,272686571
3	0	385,00	0,272610188
3	0	390,00	0,272610188
3	0	395,00	0,272514731
3	0	400,00	0,272476524
3	0	405,00	0,272457421
3	0	410,00	0,272304684
3	0	415,00	0,27211374
3	0	420,00	0,272190094
3	0	425,00	0,272037357
3	0	430,00	0,271922767
3	0	435,00	0,271846384
3	0	440,00	0,271846384
3	0	445,00	0,271808207
3	0	450,00	0,271808207
3	0	455,00	0,271808207
3	0	460,00	0,271674544
3	0	465,00	0,27165544
3	0	470,00	0,271617264
3	0	475,00	0,271617264
3	0	480,00	0,27142632
3	0	485,00	0,271388113
3	0	490,00	0,271464497
3	0	495,00	0,271330833
3	0	500,00	0,27136904
3	0	505,00	0,271349937
3	0	510,00	0,271292657
3	0	515,00	0,271216273
3	0	520,00	0,27119717
3	0	525,00	0,271101683
3	0	530,00	0,271063507
3	0	535,00	0,27108261
3	0	540,00	0,271006227
3	0	545,00	0,270891666
3	0	550,00	0,270815283
3	0	555,00	0,27091074
3	0	560,00	0,2707389
3	0	565,00	0,2707389
3	0	570,00	0,27079618
3	0	575,00	0,270719796
3	0	580,00	0,27068162
3	0	585,00	0,270547956
3	0	590,00	0,270605236
3	0	595,00	0,270547956
3	0	600,00	0,270605236