File: Experimentelles/Rohdaten/Batteriemessungen/AlteZelle/150511_LLTO_LTO_Tests/ZView-Export/LLTO_LP30_LTO_05_GCPL_C01_loop6.txt
EC-Lab ASCII FILE
Nb header lines : 3
mode	ox/red	error	control changes	Ns changes	counter inc.	Ns	time/s	control/V/mA	Ewe/V	dq/mA.h	<I>/mA	P/W	(Q-Qo)/mA.h	x	Capacity/mA.h
1	0	0	1	1	0	1	242530,80	-0,0100000007	2,57484508	0	0	0	0	0	0
1	0	0	1	0	0	1	243230,80	-0,0100000007	1,81005573	-2,7756758984695706E-005	-0,0099924316710526848	1,80868574E-005	-0,001942864328724841	7,2490880313595942E-005	0,001942864328724841
1	0	0	1	0	0	1	243930,80	-0,0100000007	1,47001362	-2,7756605955151222E-005	-0,0099923765804252915	1,46889297E-005	-0,003885848949261207	0,00014498624887641395	0,003885848949261207
1	0	0	1	0	0	1	244630,80	-0,0100000007	1,25603616	-2,7757061157737757E-005	-0,0099925404533308045	1,25509923E-005	-0,0058288188663104269	0,00021748106883235747	0,0058288188663104269
1	0	0	1	0	0	1	245330,80	-0,0100000007	1,09290838	-2,7757156400268691E-005	-0,0099925747406365747	1,09209686E-005	-0,0077718061289076301	0,00028997653597401754	0,0077718061289076301
1	0	0	1	0	0	1	246030,80	-0,0100000007	0,951147735	-2,7758545839641658E-005	-0,0099930749387325811	9,50489084E-006	-0,0097148234906687027	0,00036247312615595034	0,0097148234906687027
1	1	0	0	0	0	2	246713,25	0,0100000007	1,33420432	2,7795086459101485E-005	0,01000622955967992	1,33503545E-005	-0,0093870730327308186	0,00035024431590511053	0,0011117941098100406
1	1	0	0	0	0	2	247413,25	0,0100000007	1,72351122	2,7794205056865597E-005	0,010005912254924646	1,72453019E-005	-0,0074414352615088563	0,00027764995472301395	0,0030574318810320045
1	1	0	0	0	0	2	248113,25	0,0100000007	1,96989286	2,779471633029688E-005	0,010006096313331107	1,97109384E-005	-0,0054958032457266054	0,0002050558082841112	0,0050030638968142566
1	1	0	0	0	0	2	248813,25	0,0100000007	2,11594987	2,7794324511144723E-005	0,010005955258458403	2,11720999E-005	-0,0035502141987469229	0,00013246326506900446	0,0069486529437939405
1	1	0	0	0	0	2	249513,25	0,0100000007	2,20470929	2,7794799058025498E-005	0,010006126095308752	2,20605998E-005	-0,0016046288563647904	5,9870860077413222E-005	0,0088942382861760717
1	1	0	0	0	0	2	250213,25	0,0100000007	2,2646482	2,7794435706662221E-005	0,010005995288838437	2,26600587E-005	0,00034097636653710861	-1,272228668310015E-005	0,010839843509077968
1	1	0	0	0	0	2	250913,25	0,0100000007	2,30644703	2,7794637158461328E-005	0,01000606781147477	2,30784663E-005	0,0022865932664564429	-8,5315869128833958E-005	0,012785460408997299
1	1	0	0	0	0	2	251613,25	0,0100000007	2,33528042	2,7795054662351808E-005	0,010006218112851826	2,33673254E-005	0,0042322380112765581	-0,00015791049050525376	0,014731105153817414
1	1	0	0	0	0	2	252313,25	0,0100000007	2,35731578	2,779415658230169E-005	0,01000589480408437	2,35870539E-005	0,0061778526493234317	-0,0002305039885574849	0,016676719791864291
1	1	0	0	0	0	2	253013,25	0,0100000007	2,37543702	2,7794294697284285E-005	0,010005944525936262	2,37684908E-005	0,0081234640255317888	-0,00030309736490613549	0,01862233116807265
1	1	0	0	0	0	2	253713,25	0,0100000007	2,39090371	2,7793948588323677E-005	0,010005819926264	2,39229521E-005	0,01006907432597317	-0,00037569070111647373	0,020567941468514026
1	1	0	0	0	0	2	254413,25	0,0100000007	2,40463305	2,7794769235938374E-005	0,010006115359359067	2,40610352E-005	0,0120146668311788	-0,00044828337336264019	0,02251353397371967
1	1	0	0	0	0	2	255113,25	0,0100000007	2,41687274	2,7794298406949059E-005	0,010005945860949434	2,41830985E-005	0,013960262931491878	-0,00052087617974709926	0,024459130074032742
1	1	0	0	0	0	2	255813,25	0,0100000007	2,42811966	2,7793695083094966E-005	0,010005728664395942	2,42951064E-005	0,01590585652357009	-0,00059346889254594304	0,026404723666110966
1	1	0	0	0	0	2	256513,25	0,0100000007	2,43856478	2,7793956654767194E-005	0,010005822830183211	2,43998475E-005	0,01785144140656008	-0,00066606128039699584	0,028350308549100957
1	1	0	0	0	0	2	257213,25	0,0100000007	2,44788289	2,7794407926499846E-005	0,010005985287981549	2,44934799E-005	0,019797030954796355	-0,00073865384231465997	0,030295898097337235
1	1	0	0	0	0	2	257913,25	0,0100000007	2,45548272	2,779413154374601E-005	0,010005885790205734	2,4569279E-005	0,02174261367573025	-0,0008112461494964928	0,032241480818271123
1	1	0	0	0	0	2	258613,25	0,0100000007	2,46279621	2,7794530391175715E-005	0,010006029375257963	2,46428117E-005	0,023688192522870778	-0,00088383831214188698	0,034187059665411661
1	1	0	0	0	0	2	259313,25	0,0100000007	2,47012854	2,7793830506917504E-005	0,010005777416964429	2,47155567E-005	0,025633765534068237	-0,00095643025704039846	0,036132632676609088
1	1	0	0	0	0	2	260013,25	0,0100000007	2,4769454	2,7794692174634995E-005	0,010006087617294192	2,47845328E-005	0,027579359531829584	-0,0010290229849758256	0,038078226674370426
1	1	0	0	0	0	2	260713,25	0,0100000007	2,48309398	2,7793574774948259E-005	0,010005685353469904	2,48450579E-005	0,029524948170798906	-0,0011016155129675171	0,040023815313339776
1	1	0	0	0	0	2	261413,25	0,0100000007	2,48874617	2,7793416257999424E-005	0,010005628287377253	2,49014684E-005	0,031470511530581773	-0,0011742070977587738	0,041969378673122656
1	1	0	0	0	0	2	262113,25	0,0100000007	2,494169	2,7793706856409296E-005	0,010005732902788438	2,49559889E-005	0,03341609677795209	-0,0012467994992053466	0,043914963920492973
1	1	0	0	0	0	2	262813,27	0,0100000007	2,49905729	2,7794629214952387E-005	0,010005873855202662	2,50052526E-005	0,035361722912863603	-0,001319393426221055	0,045860590055404486
1	1	0	0	0	0	2	263513,28	0,0100000007	2,50417471	2,7794657311919664E-005	0,01000588396968316	2,50564808E-005	0,037307376634394784	-0,0013919883825306342	0,047806243776935667
1	1	0	0	0	0	2	264213,29	0,0100000007	2,50904393	2,7794811823250102E-005	0,010005939592924066	2,51053425E-005	0,03925301811446201	-0,0014645828820947341	0,049751885257002893
1	1	0	0	0	0	2	264913,31	0,0100000007	2,51349306	2,7794539133035062E-005	0,010005841425870915	2,51496131E-005	0,041198651082631846	-0,0015371770640684982	0,05169751822517273
1	1	0	0	0	0	2	265613,32	0,0100000007	2,51777029	2,779470001000704E-005	0,010005899340465683	2,51925558E-005	0,043144256361014931	-0,0016097702128990893	0,053643123503555814
1	1	0	0	0	0	2	266313,33	0,0100000007	2,52183747	2,779452113620937E-005	0,010005834947604336	2,52330901E-005	0,045089868789676371	-0,0016823636285161792	0,055588735932217254
1	1	0	0	0	0	2	267013,35	0,0100000007	2,52603841	2,7795390023849907E-005	0,010006147740899152	2,52759128E-005	0,04703546633832377	-0,0017549564889399392	0,057534333480864653
1	1	0	0	0	0	2	267713,36	0,0100000007	2,52987647	2,779424206674513E-005	0,010005734484531619	2,5313273E-005	0,048981092675431738	-0,0018275504234998691	0,059479959817972621
1	1	0	0	0	0	2	268413,37	0,0100000007	2,53308439	2,7795092050244826E-005	0,010006040472466768	2,53461458E-005	0,050926707842580442	-0,0019001439412936013	0,061425574985121331
1	1	0	0	0	0	2	269113,39	0,0100000007	2,53634977	2,7794508807154166E-005	0,010005830509229923	2,53782855E-005	0,052872339485428723	-0,0019727380738178358	0,063371206627969638
1	1	0	0	0	0	2	269813,40	0,0100000007	2,53969121	2,7795201152977018E-005	0,010006079748461128	2,54123534E-005	0,054817977967368486	-0,0020453324615177693	0,065316845109909325
1	1	0	0	0	0	2	270513,41	0,0100000007	2,54265094	2,7794781994902426E-005	0,010005928854459733	2,54415845E-005	0,056763601258049555	-0,002117926282411416	0,067262468400590374
1	1	0	0	0	0	2	271213,43	0,0100000007	2,54633641	2,7795314498142234E-005	0,010006120552400875	2,54789484E-005	0,058709251545794624	-0,0021905211106018179	0,069208118688335411
1	1	0	0	0	0	2	271913,44	0,0100000007	2,54967785	2,7795206993663062E-005	0,010006081851300587	2,5512285E-005	0,06065491913669719	-0,0022631165843962912	0,071153786279238016
1	1	0	0	0	0	2	272613,45	0,0100000007	2,55256128	2,7794729406324528E-005	0,010005909923402141	2,55406976E-005	0,062600569963861274	-0,0023357114327131424	0,073099437106402125
1	1	0	0	0	0	2	273313,47	0,0100000007	2,55513906	2,7795462294636915E-005	0,010006173757765034	2,55671657E-005	0,06454621392937879	-0,0024083060250127344	0,075045081071919642
1	1	0	0	0	0	2	274013,48	0,0100000007	2,55815601	2,7794889684404349E-005	0,010005967622399888	2,55968262E-005	0,066491855935064192	-0,0024809005441883552	0,076990723077605043
1	1	0	0	0	0	2	274713,49	0,0100000007	2,56111574	2,7795078127748435E-005	0,010006035460231606	2,56266158E-005	0,068437503454183552	-0,0025534952690776099	0,078936370596724403
1	1	0	0	0	0	2	275413,51	0,0100000007	2,56283426	2,7795191297048912E-005	0,010006076200395328	2,56439143E-005	0,070383162405033254	-0,0026260904205000938	0,080882029547574106
1	1	0	0	0	0	2	276113,52	0,0100000007	2,56483936	2,7795726564040202E-005	0,010006268893267853	2,56644726E-005	0,07232881235905705	-0,0026986852362389072	0,082827679501597901
1	1	0	0	0	0	2	276813,53	0,0100000007	2,56753159	2,7795767382563405E-005	0,010006283587420294	2,569145E-005	0,074274489602528614	-0,0027712810701837069	0,084773356745069453
1	1	0	0	0	0	2	277513,55	0,0100000007	2,57016683	2,7796421560044918E-005	0,010006519087012093	2,57184238E-005	0,076220209751671398	-0,0028438785049967882	0,08671907689421225
1	1	0	0	0	0	2	278213,56	0,0100000007	2,57293558	2,779603110279681E-005	0,010006378524759818	2,57457668E-005	0,078165900630336422	-0,0029164748476889888	0,088664767772877274
1	1	0	0	0	0	2	278913,58	0,0100000007	2,57530332	2,7795589497312902E-005	0,010006219550196122	2,57690499E-005	0,08011161094777751	-0,0029890719156680602	0,090610478090318362
1	1	0	0	0	0	2	279613,59	0,0100000007	2,57761383	2,7796285602833248E-005	0,010006470142892344	2,5792815E-005	0,082057337713234522	-0,0030616695973447206	0,092556204855775373
1	1	0	0	0	0	2	280313,60	0,0100000007	2,57984781	2,7796579117990202E-005	0,010006575806780262	2,58154432E-005	0,084003082225544576	-0,003134267941180329	0,094501949368085427
1	1	0	0	0	0	2	281013,62	0,0100000007	2,58223486	2,7796005444963357E-005	0,01000636928846709	2,58387954E-005	0,085948824004528013	-0,0032068661830318464	0,096447691147068864
1	1	0	0	0	0	2	281713,63	0,0100000007	2,58446884	2,7796511648791949E-005	0,010006551517870605	2,58616201E-005	0,087894556261996314	-0,003279464069622832	0,098393423404537165
1	1	0	0	0	0	2	282313,24	0,0100000007	2,58662653	2,6675045938593232E-005	0,010006485177990954	2,58830405E-005	0,089561209231824051	-0,0033416491327658554	0,1000600763743649