File: Experimentelles/Rohdaten/Batteriemessungen/AlteZelle/150511_LLTO_LTO_Tests/ZView-Export/LLTO_LP30_LTO_05_GCPL_C01_loop0.txt
EC-Lab ASCII FILE
Nb header lines : 3
mode	ox/red	error	control changes	Ns changes	counter inc.	Ns	time/s	control/V/mA	Ewe/V	dq/mA.h	<I>/mA	P/W	(Q-Qo)/mA.h	x	Capacity/mA.h
1	1	0	0	1	0	2	12843,50	0,0100000007	0,634738743	0	0	0	0	0	0
1	1	0	0	0	0	2	13473,50	0,0100000007	1,32859039	2,7794234782716051E-005	0,010005924642921445	1,32937757E-005	0,0017509030599115715	-6,5328547279501952E-005	0,0017509030599115715
1	1	0	0	0	0	2	14103,50	0,0100000007	1,68671536	2,779438640679129E-005	0,010005979227589192	1,68772385E-005	0,0035019543767972115	-0,00013066262622604002	0,0035019543767972115
1	1	0	0	0	0	2	14733,50	0,0100000007	1,96412611	2,779460086657976E-005	0,010006056433113974	1,96531564E-005	0,0052530074347048787	-0,00019599677013245078	0,0052530074347048787
1	1	0	0	0	0	2	15363,50	0,0100000007	2,18270564	2,7794130669337594E-005	0,010005887162104746	2,18399055E-005	0,0070040570145833178	-0,00026133078426891478	0,0070040570145833178
1	1	0	0	0	0	2	15993,50	0,0100000007	2,35744953	2,7794480985910115E-005	0,010006013276072381	2,3588671E-005	0,0087551642578367027	-0,0003266669499034272	0,0087551642578367027
1	1	0	0	0	0	2	16623,50	0,0100000007	2,49082732	2,7794727106940832E-005	0,010006101879644509	2,49234727E-005	0,010506241762628797	-0,00039200200595596506	0,010506241762628797
1	1	0	0	0	0	2	17253,50	0,0100000007	2,59057927	2,779518843152457E-005	0,010006267956496669	2,59220305E-005	0,012257305640298107	-0,00045733655356223008	0,012257305640298107
1	1	0	0	0	0	2	17883,50	0,0100000007	2,66065764	2,7795671251447248E-005	0,010006441771670936	2,66237166E-005	0,014008419375784346	-0,00052267296143067917	0,014008419375784346
1	1	0	0	0	0	2	18513,50	0,0100000007	2,70866203	2,7796158999256374E-005	0,010006617360884347	2,71045446E-005	0,015759558400694445	-0,00058801031288153446	0,015759558400694445
1	1	0	0	0	0	2	19143,50	0,0100000007	2,74475145	2,7796169432294038E-005	0,01000662111677795	2,74656886E-005	0,017510679903957117	-0,00065334701057616627	0,017510679903957117
1	1	0	0	0	0	2	19773,50	0,0100000007	2,77518868	2,7795558708564691E-005	0,010006401256232725	2,77696508E-005	0,01926181249452761	-0,00071868412195315981	0,01926181249452761
1	1	0	0	0	0	2	20403,50	0,0100000007	2,80182624	2,7795709368048445E-005	0,010006455493647534	2,80363492E-005	0,021012960922112538	-0,00078402182423045504	0,021012960922112538
1	1	0	0	0	0	2	21033,50	0,0100000007	2,82441545	2,7796131326765235E-005	0,010006607398787418	2,82628171E-005	0,02276411527002359	-0,00084935974740307802	0,02276411527002359
1	1	0	0	0	0	2	21663,50	0,0100000007	2,84370136	2,7796308532874614E-005	0,010006671192987568	2,84559846E-005	0,024515281467949914	-0,00091469811271570317	0,024515281467949914
1	1	0	0	0	0	2	22293,50	0,0100000007	2,85964561	2,7796846440320627E-005	0,010006864839670474	2,86160866E-005	0,026266461752116003	-0,00098003700360487309	0,026266461752116003
1	1	0	0	0	0	2	22923,50	0,0100000007	2,87259197	2,7796485702248499E-005	0,010006734973962936	2,87452658E-005	0,028017636952001757	-0,001045375704792708	0,028017636952001757
1	1	0	0	0	0	2	23553,50	0,0100000007	2,88297963	2,7796508068581008E-005	0,010006743025842736	2,88492356E-005	0,029768833781594618	-0,0011107152130139965	0,029768833781594618
1	1	0	0	0	0	2	24183,50	0,0100000007	2,89117122	2,7796686370908797E-005	0,010006807214681518	2,89313939E-005	0,031520022543873843	-0,0011760544202329664	0,031520022543873843
1	1	0	0	0	0	2	24813,50	0,0100000007	2,89733887	2,7796763247085946E-005	0,010006834890105626	2,89931922E-005	0,033271202586156832	-0,0012413933020971525	0,033271202586156832
1	1	0	0	0	0	2	25443,50	0,0100000007	2,90142512	2,7797023184649229E-005	0,010006928467629542	2,90343542E-005	0,035022402947103027	-0,0013067329420779819	0,035022402947103027
1	1	0	0	0	0	2	26073,50	0,0100000007	2,90379286	2,7797226098624784E-005	0,010007001516661624	2,90582593E-005	0,036773614873308179	-0,0013720730135741725	0,036773614873308179
1	1	0	0	0	0	2	26703,50	0,0100000007	2,90495777	2,7797078504278842E-005	0,010006948382696442	2,90697626E-005	0,038524834733717997	-0,001437413381106207	0,038524834733717997
1	1	0	0	0	0	2	27333,50	0,0100000007	2,90457582	2,7796865073136157E-005	0,010006871547484147	2,90657172E-005	0,040276040078274925	-0,0015027532070322531	0,040276040078274925
1	1	0	0	0	0	2	27963,50	0,0100000007	2,90343022	2,7797633447218685E-005	0,010007148162157206	2,90550561E-005	0,042027285326713408	-0,0015680945218257715	0,042027285326713408
1	1	0	0	0	0	2	28593,50	0,0100000007	2,9016161	2,7797431573633933E-005	0,010007075487665814	2,90366916E-005	0,043778530730328858	-0,001633435842409151	0,043778530730328858
1	1	0	0	0	0	2	29223,50	0,0100000007	2,89922929	2,7797848115882112E-005	0,010007225442876974	2,90132411E-005	0,045529777121294042	-0,0016987771998318771	0,045529777121294042
1	1	0	0	0	0	2	29853,50	0,0100000007	2,89619327	2,7796849304034067E-005	0,010006865870607325	2,89818181E-005	0,047281027732094285	-0,0017641187147023226	0,047281027732094285
1	1	0	0	0	0	2	30483,50	0,0100000007	2,89281344	2,7798187183992317E-005	0,010007347507398128	2,89493892E-005	0,049032281214753926	-0,001829460336725703	0,049032281214753926
1	1	0	0	0	0	2	31113,50	0,0100000007	2,88918543	2,7798377860337494E-005	0,010007416150883222	2,89132804E-005	0,050783544213580582	-0,0018948023138100701	0,050783544213580582
1	1	0	0	0	0	2	31743,50	0,0100000007	2,88532829	2,7798836071613347E-005	0,010007581106944526	2,88751562E-005	0,052534831492509037	-0,0019601451968176797	0,052534831492509037
1	1	0	0	0	0	2	32373,50	0,0100000007	2,88044	2,7797696421698976E-005	0,010007170832970384	2,88250558E-005	0,054286128730996435	-0,0020254884514298243	0,054286128730996435
1	1	0	0	0	0	2	33003,50	0,0100000007	2,87614346	2,7797611068002877E-005	0,010007139965841285	2,87819694E-005	0,056037387227678246	-0,0020908302605331139	0,056037387227678246
1	1	0	0	0	0	2	33633,50	0,0100000007	2,87165618	2,7797883566520691E-005	0,010007238065307517	2,87373477E-005	0,057788644963689395	-0,0021561720412547584	0,057788644963689395
1	1	0	0	0	0	2	34263,50	0,0100000007	2,86753178	2,7798468938821722E-005	0,010007448799335494	2,8696677E-005	0,059539928733799885	-0,0022215147933436525	0,059539928733799885
1	1	0	0	0	0	2	34893,50	0,0100000007	2,86355996	2,7798131701432998E-005	0,010007327393875779	2,86565828E-005	0,061291213746815629	-0,0022868575918070122	0,061291213746815629
1	1	0	0	0	0	2	35523,50	0,0100000007	2,85960746	2,7798685151462752E-005	0,010007526635886122	2,86175982E-005	0,06304252068434496	-0,0023522012083034522	0,06304252068434496
1	1	0	0	0	0	2	36153,50	0,0100000007	2,85605574	2,7798444130923597E-005	0,010007439868492186	2,8581806E-005	0,064793832338018483	-0,0024175450007655725	0,064793832338018483
1	1	0	0	0	0	2	36783,50	0,0100000007	2,85273314	2,7797226794633187E-005	0,010007001627428454	2,85473052E-005	0,066545124431572314	-0,0024828880634133286	0,066545124431572314
1	1	0	0	0	0	2	37413,50	0,0100000007	2,84975433	2,7797439231899462E-005	0,01000707810484417	2,85177139E-005	0,068296404035043315	-0,0025482306600393011	0,068296404035043315
1	1	0	0	0	0	2	38043,50	0,0100000007	2,84681368	2,7798396765927059E-005	0,010007422817093464	2,84892685E-005	0,070047709897855987	-0,0026135742364366173	0,070047709897855987
1	1	0	0	0	0	2	38673,50	0,0100000007	2,8443315	2,779968110420224E-005	0,010007885178871667	2,84657435E-005	0,071799040412988966	-0,0026789187326451494	0,071799040412988966
1	1	0	0	0	0	2	39303,50	0,0100000007	2,84205914	2,7798245112359936E-005	0,010007368221809402	2,84415328E-005	0,073550354482432051	-0,0027442626152428803	0,073550354482432051
1	1	0	0	0	0	2	39933,50	0,0100000007	2,84011149	2,7799560781568285E-005	0,010007841862723525	2,84233865E-005	0,075301693245109862	-0,0028096074191783994	0,075301693245109862
1	1	0	0	0	0	2	40563,50	0,0100000007	2,838202	2,7799582065703968E-005	0,010007849525012355	2,84042981E-005	0,077053045414223194	-0,0028749527233260531	0,077053045414223194
1	1	0	0	0	0	2	41193,50	0,0100000007	2,83640695	2,779950392742952E-005	0,010007821395233606	2,83862537E-005	0,078804397596024269	-0,0029402980279471027	0,078804397596024269
1	1	0	0	0	0	2	41823,50	0,0100000007	2,83476496	2,7799408750712042E-005	0,010007787131615379	2,83697245E-005	0,080555748195195622	-0,0030056432735181101	0,080555748195195622
1	1	0	0	0	0	2	42453,50	0,0100000007	2,83287454	2,7799256639399875E-005	0,010007732371543101	2,83506506E-005	0,082307108119604237	-0,0030709888670262579	0,082307108119604237
1	1	0	0	0	0	2	43083,50	0,0100000007	2,83119416	2,7798416942254541E-005	0,010007430080571342	2,83329773E-005	0,084058405368253901	-0,0031363321220175706	0,084058405368253901
1	1	0	0	0	0	2	43713,50	0,0100000007	2,82957101	2,7797162640011974E-005	0,010006978531764861	2,83154568E-005	0,085809685490102259	-0,0032016747379848992	0,085809685490102259
1	1	0	0	0	0	2	44343,50	0,0100000007	2,82789063	2,7796922382795149E-005	0,010006892039166965	2,82983965E-005	0,087560898274337818	-0,0032670148414953574	0,087560898274337818
1	1	0	0	0	0	2	44973,50	0,0100000007	2,82617211	2,7795475557343002E-005	0,010006371182005162	2,82797264E-005	0,089312063146476198	-0,0033323531573410522	0,089312063146476198
1	1	0	0	0	0	2	45603,50	0,0100000007	2,82445359	2,779593821061361E-005	0,01000653773718227	2,82630008E-005	0,091063177682566989	-0,0033976895950811334	0,091063177682566989
1	1	0	0	0	0	2	46233,50	0,0100000007	2,82267785	2,7795161321293562E-005	0,010006258057027574	2,82444435E-005	0,092814282371793574	-0,0034630256654214726	0,092814282371793574
1	1	0	0	0	0	2	46863,50	0,0100000007	2,8213985	2,7794692014137075E-005	0,010006089106451554	2,82311648E-005	0,094565375129285453	-0,0035283612905727469	0,094565375129285453
1	1	0	0	0	0	2	47493,50	0,0100000007	2,82038641	2,7794761566600451E-005	0,010006114145338323	2,82211076E-005	0,09631646388120521	-0,0035936967662707398	0,09631646388120521
1	1	0	0	0	0	2	48123,50	0,0100000007	2,81971812	2,7795729936410982E-005	0,010006462758469466	2,82154051E-005	0,098067551179702323	-0,0036590321877395795	0,098067551179702323
1	1	0	0	0	0	2	48753,50	0,0100000007	2,81903076	2,7796024945357603E-005	0,010006568961690051	2,82088258E-005	0,099818667564548032	-0,0037243686944591923	0,099818667564548032
1	1	0	0	0	0	2	48843,50	0,0100000007	2,81906891	2,7795591121177293E-005	0,010006412784985429	2,82087676E-005	0,10006882844625952	-0,0037337025333007309	0,10006882844625952