File: Experimentelles/Ausgewaehlte_Daten/LTO/GCPL/LTO_Korrosion_05_GCPL_C02.mpt
EC-Lab ASCII FILE
Nb header lines : 75

Galvanostatic Cycling with Potential Limitation

Run on channel : 2 (SN 6986)
Grouped channel(s) : 2
User :
CE vs. WE compliance from -10 V to 10 V
Electrode connection : standard
Ewe ctrl range : min = 0,00 V, max = 5,00 V
Acquisition started on : 09.04.2015 14:14:19
Saved on :
	File : LTO_Korrosion_05_GCPL_C02.mpr
	Directory : C:\Gielisch\AlteZelle\150904_LTO_Korrosion\
	Host : 192.168.0.2
Device : VMP3 (SN 0324)
Address : 192.168.0.1
EC-Lab for windows v10.33 (software)
Internet server v10.33 (firmware)
Command interpretor v10.32 (firmware)
Electrode material :
Initial state :
Electrolyte :
Comments :
Electrode surface area : 0,001 cm²
Characteristic mass : 0,001 g
Equivalent Weight : 0,000 g/eq.
Density : 0,000 g/cm3
Ns                  0                   1                   2
Set I/C             I                   I                   I
Is                  0,000               40,000              -40,000
unit Is             mA                  µA                  µA
vs.                 <None>              <None>              <None>
N                   1                   1                   1
I sign              > 0                 > 0                 > 0
t1 (h:m:s)          0:00:0,0000         6:00:0,0000         6:00:0,0000
I Range             100 µA              100 µA              100 µA
Bandwidth           5                   5                   5
dE1 (mV)            0,00                10,00               10,00
dt1 (s)             0,0000              10,0000             10,0000
EM (V)              0,000               4,000               1,500
tM (h:m:s)          0:00:0,0000         0:00:0,0000         0:00:0,0000
Im                  0,000               0,000               0,000
unit Im             mA                  mA                  mA
E range min (V)     0,000               0,000               0,000
E range max (V)     5,000               5,000               5,000
dq                  0,000               1,000               1,000
unit dq             mA.h                mA.h                mA.h
dtq (s)             0,0000              120,0000            120,0000
dQM                 0,000               0,000               0,000
unit dQM            mA.h                mA.h                mA.h
dxM                 0,000               0,000               0,000
tR (h:m:s)          0:00:0,0000         0:00:0,0000         0:00:0,0000
dER/dt (mV/h)       0,0                 0,1                 0,1
dER (mV)            0,00                5,00                5,00
dtR (s)             1,0000              120,0000            120,0000
EL (V)              pass                4,200               3,500
goto Ns'            0                   0                   0
nc cycles           0                   0                   0

Number of loops : 11
Loop 0 from point number 0 to 1298
Loop 1 from point number 1299 to 3626
Loop 2 from point number 3627 to 5954
Loop 3 from point number 5955 to 8281
Loop 4 from point number 8282 to 10607
Loop 5 from point number 10608 to 12933
Loop 6 from point number 12934 to 15257
Loop 7 from point number 15258 to 17581
Loop 8 from point number 17582 to 19904
Loop 9 from point number 19905 to 22226
Loop 10 from point number 22227 to 24547

mode	ox/red	error	control changes	Ns changes	counter inc.	Ns	time/s	control/V/mA	Ewe/V	dq/mA.h	<I>/mA	P/W	(Q-Qo)/mA.h	Capacity/mA.h
1	1	0	0	1	0	1	4305,2837	0,0400000028	3,14299011	0	0	0	0	0
1	0	0	1	0	0	2	5501,8473	-0,0400000028	1,5535481	-0,00011108141049080426	-0,039989308260847821	6,2125313E-005	-0,009613550658929623	0,011452678738493062
1	0	0	1	0	0	2	9271,8472	-0,0400000028	1,55133557	-0,00011108138652621872	-0,039989299633596922	6,20368228E-005	-0,051491274830224506	0,053330402909787942
1	0	0	1	0	0	2	13041,8472	-0,0400000028	1,54773068	-0,00011108168725938434	-0,039989407897537856	6,18928316E-005	-0,093368938539539802	0,095208066619103232
1	1	0	1	0	0	1	16793,2603	0,0400000028	1,57073319	0,00011112828835824298	0,04000618429333008	6,28390408E-005	-0,088690348028718246	0,02317926896373393
1	1	0	1	0	0	1	20563,2603	0,0400000028	1,57250702	0,00011112806583051051	0,040006104183345427	6,29098795E-005	-0,046795045693980397	0,065074571298471718
1	1	0	1	0	0	1	23970,2049	0,0400000028	2,31366038	2,1852463434760768E-005	0,040006544608106195	9,25615605E-005	-0,0089342552898775808	0,10293536170257469
1	0	0	0	0	0	2	24642,7730	-0,0400000028	1,92079639	-5,5566381236331334E-005	-0,03998860044611351	7,68099562E-005	-0,0073964218101279232	0,0029675120159333792
1	0	0	0	0	0	2	28343,6460	-0,0400000028	1,55230832	-0,00011108041324652733	-0,039988949252903776	6,20751816E-005	-0,048505927897052122	0,044077018102857581
1	0	0	0	0	0	2	32113,6460	-0,0400000028	1,54912305	-0,00011108008649303682	-0,039988831621645773	6,19476195E-005	-0,090383483209779315	0,085954573415584794
1	1	0	1	0	0	1	35860,1452	0,0400000028	1,56987488	0,00011112691923831072	0,040005690851275456	6,2803927E-005	-0,10031040769399715	0,015847542904285264
1	1	0	1	0	0	1	39630,1452	0,0400000028	1,57126725	0,00011112756167497072	0,040005922128472621	6,28599955E-005	-0,05841529091457161	0,05774265968371072
1	1	0	1	0	0	1	43400,1452	0,0400000028	1,62472999	0,00011112765147474906	0,040005954456392762	6,49988724E-005	-0,016520228984291805	0,0996377216139904
1	0	0	0	0	0	2	44294,7822	-0,0400000028	2,64247584	-1,1099198971978493E-005	-0,039989107509836762	0,000105670253	-0,0092553550796678886	0,0013382142312888886
1	0	0	0	0	0	2	47425,9348	-0,0400000028	1,55288053	-0,00011107975550409821	-0,039988711906990579	6,20976934E-005	-0,044036213927532486	0,036119073079153466
1	0	0	0	0	0	2	51195,9348	-0,0400000028	1,5500958	-0,00011107997094715637	-0,03998878946649136	6,19864513E-005	-0,085913429592987866	0,077996288744608819
1	1	0	1	0	0	1	54949,8676	0,0400000028	1,56895936	0,00011112797512941891	0,04000607097207369	6,27678965E-005	-0,11058407623316406	0,0085152953033713741
1	1	0	1	0	0	1	58719,8676	0,0400000028	1,57080948	0,00011112816146637003	0,040006138053375968	6,28420239E-005	-0,068688795106507622	0,050410576430027814
1	1	0	1	0	0	1	62489,8676	0,0400000028	1,5753299	0,00011112926240513722	0,040006534391331424	6,30234863E-005	-0,026793411609313043	0,092305959927222272
1	0	0	0	0	0	2	64007,5802	-0,0400000028	3,32467318	-1,0230467554181814E-005	-0,039988798187796134	0,000132949688	-0,011168469749663142	0,00062047358239069594
1	0	0	0	0	0	2	66529,6992	-0,0400000028	1,55316663	-0,00011108078410724798	-0,039988291963354803	6,21084837E-005	-0,03918389992759968	0,02863590376032721
1	0	0	0	0	0	2	70299,7737	-0,0400000028	1,55053449	-0,0001110825868818081	-0,039988940883731309	6,20042338E-005	-0,081061737116343539	0,070513740949070989
1	1	0	1	0	0	1	74053,9348	0,0400000028	1,55356717	0,00011113055309156578	0,040006208378412454	6,21523286E-005	-0,12018106739858373	0,0012906631053324406
1	1	0	1	0	0	1	77824,0093	0,0400000028	1,57067597	0,00011112985742795798	0,040005958093960141	6,28363996E-005	-0,078284946536717632	0,043186783967198426
1	1	0	1	0	0	1	81594,0838	0,0400000028	1,57328904	0,00011113086519514522	0,040006320744657741	6,29415081E-005	-0,036388718383574061	0,085083012120341939
1	0	0	0	0	0	2	83727,9889	-0,0400000028	3,98671007	-4,4920366207758586E-006	-0,039988466073364435	0,000159422416	-0,012683854964367483	4,494236096739769E-006
1	0	0	0	0	0	2	85653,5217	-0,0400000028	1,55345273	-0,00011108256417533589	-0,039988932858530317	6,21209183E-005	-0,034072712887581894	0,021393352159311165
1	0	0	0	0	0	2	89423,5962	-0,0400000028	1,55101132	-0,00011108243321689467	-0,039988885565921382	6,20232167E-005	-0,075950866136456166	0,063271505408185382
1	0	0	0	0	0	2	93193,6707	-0,0400000028	1,54202783	-0,00011108213781027331	-0,039988779357106355	6,16638135E-005	-0,11782885640630294	0,10514949567803216
1	1	0	1	0	0	1	96948,7254	0,0400000028	1,57059968	0,00011113184065992635	0,040006672042428531	6,28344642E-005	-0,087408168556583488	0,036073246723516806
1	1	0	1	0	0	1	100718,7999	0,0400000028	1,57264054	0,00011113032016282282	0,040006124615141254	6,29152564E-005	-0,045511930603947782	0,077969484676152525
1	1	0	1	0	0	1	103367,1347	0,0400000028	3,37452149	2,8190991772131786E-005	0,040006147173845798	0,00013500161	-0,016081515485440979	0,10739989979465941
1	0	0	0	0	0	2	104795,6573	-0,0400000028	1,55404401	-0,00011108175253288613	-0,039988640524288864	6,21441068E-005	-0,028740410579212298	0,014263776943582421
1	0	0	0	0	0	2	108565,7318	-0,0400000028	1,55127835	-0,0001110831962308536	-0,03998916029393216	6,20343199E-005	-0,070618485048248653	0,056141851412618688
1	0	0	0	0	0	2	112335,8063	-0,0400000028	1,54570889	-0,00011108177902715074	-0,039988650210769229	6,18108097E-005	-0,11249648209870659	0,098019848463076659
1	1	0	1	0	0	1	116083,2759	0,0400000028	1,5705806	0,0001111288615167141	0,040005599572531552	6,28320195E-005	-0,09621435140891991	0,028960024197974387
1	1	0	1	0	0	1	119853,3504	0,0400000028	1,57233536	0,00011112916511938803	0,040005708736467424	6,29023925E-005	-0,054318760627890163	0,070855614979004147
1	1	0	1	0	0	1	122979,4324	0,0400000028	2,72776246	2,3581196160987021E-005	0,040005808707132666	0,00010912634	-0,019579610535808435	0,10559476507108589
1	0	0	0	0	0	2	123940,5456	-0,0400000028	1,59669209	-0,00011108194166194232	-0,039988708612894778	6,38496567E-005	-0,023248897125271398	0,0071733918080116749
1	0	0	0	0	0	2	127710,6201	-0,0400000028	1,55158353	-0,00011108115428251526	-0,039988425307610426	6,20453793E-005	-0,065126621560532314	0,049051116243272614
1	0	0	0	0	0	2	131480,6866	-0,0400000028	1,54723477	-0,00011108005973779494	-0,039988815248868467	6,18720878E-005	-0,10700429364644336	0,090928788329183616
1	1	0	1	0	0	1	135235,0766	0,0400000028	1,57046616	0,00011112821198503178	0,040006150055161485	6,28283015E-005	-0,10458341937475482	0,022066426811470598
1	1	0	1	0	0	1	139005,0772	0,0400000028	1,57220185	0,00011112727892874843	0,040005814154952038	6,2897212E-005	-0,062688311847885427	0,063961534338339994
1	1	0	1	0	0	1	142602,8549	0,0400000028	2,10511208	5,425935822539031E-005	0,04000607441387143	8,4217274E-005	-0,022707178803811875	0,10394266738241352
1	0	0	0	0	0	2	143289,3446	-0,0400000028	2,13066077	-3,6536355595621798E-005	-0,039988708371285568	8,52023732E-005	-0,019758809480205174	0,0023397053714719491
1	0	0	0	0	0	2	146873,5306	-0,0400000028	1,55175519	-0,00011107921971235837	-0,039988512839758618	6,20523788E-005	-0,059571517810518925	0,042152413701785722
1	0	0	0	0	0	2	150643,5312	-0,0400000028	1,54822659	-0,00011107880097358592	-0,039988362093824115	6,19110433E-005	-0,10144820544985442	0,084029101341121178
1	1	0	1	0	0	1	154399,1524	0,0400000028	1,5702945	0,00011112775971016122	0,040005987236233562	6,28211783E-005	-0,11281885680554018	0,015175948479398576
1	1	0	1	0	0	1	158169,1529	0,0400000028	1,57203019	0,00011112733727693558	0,040005835160296128	6,28903799E-005	-0,070923798484908275	0,057071006800030426
1	1	0	1	0	0	1	161939,1535	0,0400000028	1,59480381	0,00011112824771284229	0,040006162917171258	6,38019847E-005	-0,029028685267896646	0,09896612001704201
1	0	0	0	0	0	2	162979,7025	-0,0400000028	2,74295425	-1,0094832775907386E-005	-0,039988327831704883	0,000109686152	-0,019824932392103331	0,001179588243408957
1	0	0	0	0	0	2	166066,5106	-0,0400000028	1,55202222	-0,00011107921400955981	-0,039988510786751462	6,20630599E-005	-0,054112888160875789	0,035467544012181459
1	0	0	0	0	0	2	169836,5112	-0,0400000028	1,54893231	-0,00011107890406230258	-0,039988399205756307	6,1939325E-005	-0,095989702238850765	0,077344358090156442
1	1	0	1	0	0	1	173584,6894	0,0400000028	1,56947434	0,00011112794547362461	0,040006054111069907	6,27884729E-005	-0,12083558662433234	0,0083955635013194342
1	1	0	1	0	0	1	177354,6900	0,0400000028	1,57185853	0,0001111277040263845	0,040005967190077075	6,28837224E-005	-0,078940213823600282	0,05029093630205145
1	1	0	1	0	0	1	181124,6905	0,0400000028	1,57622635	0,00011112746473298306	0,040005881044466035	6,30583236E-005	-0,037044955360573914	0,092186194765077773
1	0	0	0	0	0	2	182730,2592	-0,0400000028	3,35438943	-9,8771790787577638E-006	-0,03998857302152121	0,000134137241	-0,020360737349262134	0,00057893655372141952
1	0	0	0	0	0	2	185269,4222	-0,0400000028	1,55215573	-0,00011107915618332725	-0,039988489969310989	6,20683641E-005	-0,048565542602847955	0,028783741807307213
1	0	0	0	0	0	2	189039,4228	-0,0400000028	1,54952359	-0,00011108006834425034	-0,039988818347191923	6,19636194E-005	-0,090442492112836736	0,070660691317296038
1	1	0	1	0	0	1	192789,3110	0,0400000028	1,56071973	0,00011112827704391546	0,040006173476355949	6,24384265E-005	-0,12864441285514714	0,0017256331678089802
1	1	0	1	0	0	1	196559,3116	0,0400000028	1,57178223	0,00011112774747216867	0,040005982830556934	6,28806956E-005	-0,086749357878844787	0,043620688144111277
1	1	0	1	0	0	1	200329,3121	0,0400000028	1,57464325	0,00011112840287076931	0,040006218774016243	6,29955248E-005	-0,044854279713924154	0,08551576630903191
1	0	0	0	0	0	2	202492,2351	-0,0400000028	3,95607805	-6,6713645917673907E-006	-0,039988193138495667	0,000158196417	-0,020866084620809798	2,3924023484397264E-005
1	0	0	0	0	0	2	204488,4776	-0,0400000028	1,55251813	-0,00011107864562132291	-0,039988306167018195	6,20825667E-005	-0,043040068137548282	0,022197907540222813
1	0	0	0	0	0	2	208258,4782	-0,0400000028	1,54990506	-0,00011107890963595773	-0,039988401212271859	6,19782222E-005	-0,084916760228184563	0,064074599630859226
1	0	0	0	0	0	2	212028,4788	-0,0400000028	1,53951013	-0,00011107841777946384	-0,03998822414396176	6,15622776E-005	-0,12679333893352107	0,1059511783361957
1	0	0	0	0	0	2	212445,1986	-0,0400000028	1,49995196	-7,4642818268595469E-005	-0,039988407943514042	5,99806917E-005	-0,13142220773993813	0,1105800471426127