File: Experimentelles/Ausgewaehlte_Daten/LTO/GCPL/LTO_Korrosion_bessereGCPL_01_GCPL_C02.mpt
EC-Lab ASCII FILE
Nb header lines : 68

Galvanostatic Cycling with Potential Limitation

Run on channel : 2 (SN 6986)
Grouped channel(s) : 2
User :
CE vs. WE compliance from -10 V to 10 V
Electrode connection : standard
Ewe ctrl range : min = 0,00 V, max = 5,00 V
Acquisition started on : 09.07.2015 11:32:40
Saved on :
	File : LTO_Korrosion_bessereGCPL_01_GCPL_C02.mpr
	Directory : C:\Gielisch\AlteZelle\150904_LTO_Korrosion\
	Host : 192.168.0.2
Device : VMP3 (SN 0324)
Address : 192.168.0.1
EC-Lab for windows v10.33 (software)
Internet server v10.33 (firmware)
Command interpretor v10.32 (firmware)
Electrode material :
Initial state :
Electrolyte :
Comments :
Electrode surface area : 0,001 cm²
Characteristic mass : 0,001 g
Equivalent Weight : 0,000 g/eq.
Density : 0,000 g/cm3
Ns                  0                   1                   2
Set I/C             I                   I                   I
Is                  0,000               40,000              -40,000
unit Is             mA                  µA                  µA
vs.                 <None>              <None>              <None>
N                   1                   1                   1
I sign              > 0                 > 0                 > 0
t1 (h:m:s)          0:00:0,0000         6:00:0,0000         6:00:0,0000
I Range             100 µA              100 µA              100 µA
Bandwidth           5                   5                   5
dE1 (mV)            0,00                10,00               10,00
dt1 (s)             0,0000              10,0000             10,0000
EM (V)              0,000               2,100               1,200
tM (h:m:s)          0:00:0,0000         0:00:0,0000         0:00:0,0000
Im                  0,000               0,000               0,000
unit Im             mA                  mA                  mA
E range min (V)     0,000               0,000               0,000
E range max (V)     5,000               5,000               5,000
dq                  0,000               1,000               1,000
unit dq             mA.h                mA.h                mA.h
dtq (s)             0,0000              120,0000            120,0000
dQM                 0,000               0,000               0,000
unit dQM            mA.h                mA.h                mA.h
dxM                 0,000               0,000               0,000
tR (h:m:s)          0:00:0,0000         0:00:0,0000         0:00:0,0000
dER/dt (mV/h)       0,0                 0,1                 0,1
dER (mV)            0,00                5,00                5,00
dtR (s)             1,0000              120,0000            120,0000
EL (V)              pass                4,200               3,500
goto Ns'            0                   0                   0
nc cycles           0                   0                   0

Number of loops : 4
Loop 0 from point number 0 to 1918
Loop 1 from point number 1919 to 3965
Loop 2 from point number 3966 to 6009
Loop 3 from point number 6010 to 8052

mode	ox/red	error	control changes	Ns changes	counter inc.	Ns	time/s	control/V/mA	Ewe/V	dq/mA.h	<I>/mA	P/W	(Q-Qo)/mA.h	Capacity/mA.h
1	1	0	1	1	0	1	0,0004	0,0400000028	1,564973	0	0	0	0	0
1	1	0	1	0	0	1	1230,0004	0,0400000028	1,57359421	0,00011112653026812605	0,040005551907150624	6,2952502E-005	0,013668153165078571	0,013668153165078571
1	1	0	1	0	0	1	2460,0003	0,0400000028	1,57506287	0,00011112763442657888	0,040005949404203686	6,30118884E-005	0,027336845390415206	0,027336845390415206
1	1	0	1	0	0	1	3690,0003	0,0400000028	1,57689393	0,0001111285367227263	0,04000627423082496	6,30856521E-005	0,041005602364187392	0,041005602364187392
1	1	0	1	0	0	1	4920,0003	0,0400000028	1,5790683	0,00011112787369969819	0,040006035016252147	6,31722651E-005	0,054674357978000557	0,054674357978000557
1	1	0	1	0	0	1	6150,0003	0,0400000028	1,58208191	0,00011112695386364229	0,040005703875268019	6,32923038E-005	0,068343062895838746	0,068343062895838746
1	1	0	1	0	0	1	7380,0003	0,0400000028	1,58623981	0,00011112722206322685	0,040005800427119622	6,34587923E-005	0,082011807486658458	0,082011807486658458
1	1	0	1	0	0	1	8544,5386	0,0400000028	1,89849007	5,9688893572323853E-005	0,040005961323888666	7,59509203E-005	0,094953107544906125	0,094953107544906125
1	0	0	0	0	0	2	9405,8546	-0,0400000028	1,5535481	-0,00011107792966067792	-0,039988055161987168	6,21233703E-005	0,087543084498242675	0,0084889182969286208
1	0	0	0	0	0	2	10635,8546	-0,0400000028	1,55236554	-0,0001110774881736272	-0,039987896226646989	6,20758292E-005	0,073880463990471322	0,022151538804699962
1	0	0	0	0	0	2	11865,8546	-0,0400000028	1,5516026	-0,00011107865267929931	-0,039988315448694029	6,20459759E-005	0,060217855031288038	0,035814147763883283
1	0	0	0	0	0	2	13095,8546	-0,0400000028	1,55097318	-0,00011107843555054731	-0,039988237282342355	6,20206847E-005	0,046555229469282291	0,04947677332588903
1	0	0	0	0	0	2	14325,8546	-0,0400000028	1,55003858	-0,00011107813283801078	-0,039988128305827891	6,19831408E-005	0,032892610522541882	0,063139392272629427
1	0	0	0	0	0	2	15555,8546	-0,0400000028	1,54847455	-0,00011107909646816552	-0,039988475212687795	6,19211351E-005	0,019229974232952973	0,076802028562218355
1	0	0	0	0	0	2	16785,8545	-0,0400000028	1,54544187	-0,00011107757682001424	-0,039987928139346714	6,17990154E-005	0,0055673920023169434	0,090464610792854285
1	0	0	0	0	0	2	18015,8545	-0,0400000028	1,50840139	-0,00011107805587972203	-0,039988100600843603	6,0318107E-005	-0,0080951876426820032	0,10412719043785323
1	1	0	1	0	0	1	19215,6427	0,0400000028	1,53155649	0,00011112839177478518	0,040006221523285728	6,12717849E-005	-0,010740375513102707	0,0053415562397918541
1	1	0	1	0	0	1	20445,6427	0,0400000028	1,57336533	0,0001111272502715389	0,04000581058211209	6,29437563E-005	0,0029283574193657498	0,01901028917226032
1	1	0	1	0	0	1	21675,6427	0,0400000028	1,57479584	0,00011112730621298154	0,040005830721031693	6,30010181E-005	0,01659701362741008	0,032678945380304666
1	1	0	1	0	0	1	22905,6427	0,0400000028	1,57616913	0,00011112717777242262	0,04000578448242992	6,30558861E-005	0,030265690701595949	0,046347622454490566
1	1	0	1	0	0	1	24135,6427	0,0400000028	1,57786667	0,00011112713488936424	0,040005769044528717	6,31237708E-005	0,043934396484912794	0,060016328237807411
1	1	0	1	0	0	1	25365,6426	0,0400000028	1,58030808	0,00011112784166323642	0,040006023483125779	6,32218434E-005	0,057603035985801312	0,073684967738695846
1	1	0	1	0	0	1	26595,6426	0,0400000028	1,58414185	0,00011112692523747683	0,040005693569848333	6,33746968E-005	0,071271710355236902	0,087353642108131405
1	1	0	1	0	0	1	27825,6426	0,0400000028	1,593297	0,00011112780429298678	0,040006010029835744	6,3741456E-005	0,084940388201526912	0,10102231995442142
1	0	0	0	0	0	2	28734,8646	-0,0400000028	1,92433453	-3,4440830131164851E-005	-0,03998806359235575	7,69504113E-005	0,094275040062096269	0,0003845718337932809
1	0	0	0	0	0	2	29850,8554	-0,0400000028	1,55303311	-0,00011107814849105974	-0,039988133940925574	6,21028958E-005	0,081878817578402099	0,012780794317487424
1	0	0	0	0	0	2	31080,8554	-0,0400000028	1,55217481	-0,00011107784207827515	-0,039988023632321792	6,20684004E-005	0,068216230958536794	0,026443380937352784
1	0	0	0	0	0	2	32310,8554	-0,0400000028	1,55143094	-0,00011107768119561174	-0,039987965714562272	6,2038569E-005	0,054553704567788282	0,040105907328101331
1	0	0	0	0	0	2	33540,8554	-0,0400000028	1,55061078	-0,00011107704787722064	-0,039987737161316467	6,20054197E-005	0,04089119640061911	0,053768415495270502
1	0	0	0	0	0	2	34770,8554	-0,0400000028	1,54956174	-0,0001110770388237304	-0,039987733902059994	6,19634593E-005	0,027228691247941603	0,067430920647948006
1	0	0	0	0	0	2	36000,8554	-0,0400000028	1,54763532	-0,0001110769246450315	-0,039987692797728461	6,18863633E-005	0,013566172291275203	0,081093439604614349
1	0	0	0	0	0	2	37230,8554	-0,0400000028	1,54252374	-0,00011107715304920243	-0,039987775023229837	6,16820907E-005	-9,6369713735985766E-005	0,094755981609625562
1	0	0	0	0	0	2	38457,6914	-0,0400000028	1,26809597	-0,00011107682862526013	-0,039987658230610829	5,07081895E-005	-0,013723759295142269	0,10838337119103176
1	1	0	1	0	0	1	39661,4776	0,0400000028	1,57313645	0,00011112722768344813	0,040005801891524717	6,29345886E-005	-0,0066588124563423245	0,010219910475173008
1	1	0	1	0	0	1	40891,4776	0,0400000028	1,57428086	0,00011112750053695506	0,040005900118787027	6,29805218E-005	0,007009868907707401	0,023888591839222717
1	1	0	1	0	0	1	42121,4776	0,0400000028	1,57586396	0,00011112767580441302	0,040005963215071776	6,30439536E-005	0,020678570810769347	0,037557293742284653
1	1	0	1	0	0	1	43351,4776	0,0400000028	1,57752335	0,00011112676989825237	0,040005637088854547	6,31098301E-005	0,034347267326929498	0,051225990258444794
1	1	0	1	0	0	1	44581,4776	0,0400000028	1,57954514	0,00011112767105632358	0,040005961505759578	6,31912189E-005	0,048015920233981274	0,06489464316549655
1	1	0	1	0	0	1	45811,4776	0,0400000028	1,58284485	0,00011112780260998341	0,04000600886507703	6,33233067E-005	0,061684633568718195	0,07856335650023351
1	1	0	1	0	0	1	47041,4776	0,0400000028	1,58839512	0,00011112738260895843	0,040005857664708314	6,3545107E-005	0,075353307430082995	0,092232030361598298
1	1	0	1	0	0	1	48271,4776	0,0400000028	1,61246574	0,00011112728033214808	0,040005820845056659	6,45080145E-005	0,089022001714120666	0,10590072464563598
1	0	0	0	0	0	2	49064,5916	-0,0400000028	1,58431351	-0,00011107767636432416	-0,039987963416673306	6,33534728E-005	0,089633709614770867	0,0041000550048560314
1	0	0	0	0	0	2	50294,5916	-0,0400000028	1,55249906	-0,00011107761943795613	-0,039987942923180864	6,20812425E-005	0,075971101830253722	0,017762662789373133
1	0	0	0	0	0	2	51524,5916	-0,0400000028	1,55186963	-0,00011107823519594966	-0,039988164596058118	6,20564169E-005	0,062308538121221722	0,031425226498405114
1	0	0	0	0	0	2	52754,5916	-0,0400000028	1,55118299	-0,00011107661848370402	-0,039987582579650765	6,20280553E-005	0,048645977397637171	0,045087787221989658
1	0	0	0	0	0	2	53984,5916	-0,0400000028	1,55021024	-0,00011107761784166926	-0,039987942348517587	6,19897182E-005	0,034983435022181696	0,058750329597445133
1	0	0	0	0	0	2	55214,5916	-0,0400000028	1,54898953	-0,00011107731577960982	-0,03998783360617639	6,19407365E-005	0,021320802387727616	0,072412962231899226
1	0	0	0	0	0	2	56444,5916	-0,0400000028	1,5465672	-0,000111078207914614	-0,039988154774777306	6,18443664E-005	0,0076582168887160179	0,086075547730910861
1	0	0	0	0	0	2	57674,5916	-0,0400000028	1,53462732	-0,00011107706884274051	-0,03998774470890361	6,13662851E-005	-0,0060042691824844096	0,099738033802111245
1	1	0	1	0	0	1	58876,8700	0,0400000028	1,29859424	0,00011112839347206885	0,040006221575427386	5,19518471E-005	-0,015815483511669434	0,0017715168527525366
1	1	0	1	0	0	1	60106,8700	0,0400000028	1,57409012	0,0001111272567241556	0,040005812346179386	6,2972751E-005	-0,0021467240806814637	0,015440276283740506
1	1	0	1	0	0	1	61336,8700	0,0400000028	1,57529175	0,00011112889057853155	0,040006400533753632	6,30217546E-005	0,011522012724260208	0,029109013088682176
1	1	0	1	0	0	1	62566,8700	0,0400000028	1,57704651	0,00011112700111149914	0,040005720325623226	6,30908835E-005	0,025190735667855923	0,042777736032277907
1	1	0	1	0	0	1	63796,8700	0,0400000028	1,57899201	0,00011112744836509229	0,040005881336916461	6,31689691E-005	0,038859403512723885	0,056446403877145843
1	1	0	1	0	0	1	65026,8700	0,0400000028	1,58168137	0,00011112730580754578	0,040005830016199821	6,32764786E-005	0,052528090750851251	0,070115091115273293
1	1	0	1	0	0	1	66256,8842	0,0400000028	1,58562946	0,0001111289670198328	0,040005637504003379	6,34341195E-005	0,066196980462991603	0,08378398082741367
1	1	0	1	0	0	1	67486,9085	0,0400000028	1,59249592	0,00011113006725307141	0,040006033480011405	6,37094417E-005	0,079865938082804045	0,097452938447226112
1	1	0	1	0	0	1	68617,7739	0,0400000028	1,97701514	4,5786892379737568E-005	0,040006031707118758	7,90925333E-005	0,092433023907920166	0,11002002427234224
1	0	0	0	0	0	2	69501,5503	-0,0400000028	1,553262	-0,00011108021998922859	-0,039988088819709504	6,21119761E-005	0,083608443959014272	0,009320790819621751
1	0	0	0	0	0	2	70731,5746	-0,0400000028	1,55207944	-0,00011107983184730013	-0,039987949240340819	6,20644714E-005	0,069945673899340352	0,022983560879295702
1	0	0	0	0	0	2	71961,5989	-0,0400000028	1,55141187	-0,00011107911461695202	-0,03998769103134567	6,20373758E-005	0,056282870492101536	0,036646364286534534
1	0	0	0	0	0	2	73191,6232	-0,0400000028	1,55070615	-0,00011107928710265293	-0,039987752986714592	6,20092542E-005	0,042620110069429888	0,050309124709206182
1	0	0	0	0	0	2	74421,6475	-0,0400000028	1,54971433	-0,00011107908626273274	-0,03998768073418528	6,19694838E-005	0,028957299706732659	0,063971935071903411
1	0	0	0	0	0	2	75651,6718	-0,0400000028	1,54818845	-0,00011107998309201664	-0,039988003686955482	6,19089624E-005	0,015294536546508077	0,077634698232127974
1	0	0	0	0	0	2	76881,6961	-0,0400000028	1,5444119	-0,00011107975996078717	-0,039987923270001786	6,17578262E-005	0,001631726416296863	0,091297508362339213
1	0	0	0	0	0	2	78111,7204	-0,0400000028	1,4656198	-0,00011108002478857008	-0,039988018548395859	5,8607231E-005	-0,012031098362493829	0,10496033314112992
1	0	0	0	0	0	2	78672,2395	-0,0400000028	1,19996583	-4,2294001991757088E-005	-0,039988035379582093	4,79842747E-005	-0,018257241162320368	0,11118647594095645