File: Experimentelles/Rohdaten/Batterietests/AlteZelle/Studenten_Batterietests/S vs Li GCPL 200µm/ECLab-Export/S vs Li GCPL 200µm_02_GCPL_C05_loop8.mpt
EC-Lab ASCII FILE
Nb header lines : 3
mode	ox/red	error	control changes	Ns changes	counter inc.	Ns	time/s	control/V/mA	Ewe/V	dq/mA.h	<I>/mA	P/W	(Q-Qo)/mA.h	x	Capacity/mA.h
1	0	0	1	1	0	1	137991,58	-0,200000003	3,19629645	0	0	0	0	0	0
1	0	0	1	0	0	1	138011,58	-0,200000003	1,8640027	-0,00055476717817452218	-0,19971615289480083	0,000372271461	-0,0011068065971541478	4,1296442257117997E-005	0,0011068065971541478
1	0	0	1	0	0	1	138031,58	-0,200000003	1,81753087	-0,00055476504204422227	-0,19971538388801318	0,000362988882	-0,0022163450943421728	8,2694815377578611E-005	0,0022163450943421728
1	0	0	1	0	0	1	138051,58	-0,200000003	1,79299986	-0,00055476599352641242	-0,19971572642154803	0,00035809027	-0,0033258772477192755	0,00012409295180192437	0,0033258772477192755
1	0	0	1	0	0	1	138071,58	-0,200000003	1,76690698	-0,00055476768529084	-0,19971633545664666	0,00035288019	-0,0044354106728757158	0,00016549113567806714	0,0044354106728757158
1	0	0	1	0	0	1	138091,58	-0,200000003	1,73397684	-0,00055476656880891981	-0,19971593352321827	0,000346302812	-0,0055449427161704896	0,00020688926799509322	0,0055449427161704896
1	0	0	1	0	0	1	138111,58	-0,200000003	1,69927526	-0,0005547660185429785	-0,19971573542751043	0,000339371996	-0,0066544711753154534	0,00024828726658267091	0,0066544711753154534
1	0	0	1	0	0	1	138131,58	-0,200000003	1,66015518	-0,0005547553275740809	-0,19971188667930947	0,000331552728	-0,0077639914053496128	0,00028968495813106035	0,0077639914053496128
1	0	0	1	0	0	1	138151,58	-0,200000003	1,6212827	-0,00055476386751317318	-0,19971496105690163	0,000323794404	-0,008873516626622089	0,00033108283590926221	0,008873516626622089
1	0	0	1	0	0	1	138171,58	-0,200000003	1,57934368	-0,00055476475564721562	-0,19971528078510688	0,000315419078	-0,0099830427978990566	0,0003724807491334089	0,0099830427978990566
1	0	0	1	0	0	1	138191,58	-0,200000003	1,53447175	-0,00055476974843442432	-0,19971707818822083	0,000306460221	-0,011092579308605832	0,00041387904813558323	0,011092579308605832
1	1	0	0	1	0	2	138201,37	0,200000003	2,35531807	9,8008960485458368E-009	0,058805384907915469	0,000138505391	-0,011635491226980232	0,00043413582176296979	9,8008960485458368E-009
1	1	0	0	0	0	2	138221,37	0,200000003	2,70121908	0,00055612179309460858	0,20020381418973136	0,000540794339	-0,010523246568569683	0,00039263647812882426	0,0011122544593065978
1	1	0	0	0	0	2	138241,37	0,200000003	2,68533492	0,00055612335730509626	0,20020437730541882	0,000537615793	-0,009410995237525943	0,00035113688552976307	0,0022245057903503379
1	1	0	0	0	0	2	138261,37	0,200000003	2,57559299	0,00055612703398946253	0,20020570091158362	0,000515648397	-0,0082987458338430963	0,00030963736484312813	0,0033367551940331859
1	1	0	0	0	0	2	138281,37	0,200000003	2,67297411	0,00055612557426095008	0,20020517540940134	0,000535143248	-0,0071864949765503194	0,00026813778992035222	0,0044490060513259635
1	1	0	0	0	0	2	138301,37	0,200000003	2,43941522	0,00055613136225359309	0,20020725908642682	0,000488388643	-0,0060742324311600576	0,00022663777889894438	0,0055612685967162253
1	1	0	0	0	0	2	138321,37	0,200000003	2,39359093	0,00055612618957294362	0,20020539692168435	0,000479209819	-0,0049619804427093702	0,00018513816177114608	0,006673520585166912
1	1	0	0	0	0	2	138341,37	0,200000003	2,42425466	0,00055612865266617805	0,20020628363511002	0,000485351018	-0,0038497260464620032	0,00014363845480521627	0,0077857749814142797
1	1	0	0	0	0	2	138361,37	0,200000003	2,44194841	0,0005561290401725305	0,20020642313737504	0,000488893769	-0,002737467125156665	0,00010213857900328957	0,0088980339027196173
1	1	0	0	0	0	2	138381,37	0,200000003	2,60766602	0,00055613023313466048	0,20020685260367466	0,000522072602	-0,0016252058491905302	6,0638615345802675E-005	0,010010295178685752
1	1	0	0	0	0	2	138401,37	0,200000003	2,46451759	0,00055612673366980416	0,20020559279652349	0,000493410218	-0,00051295569727898669	1,9139066741749034E-005	0,011122545330597296
1	1	0	0	0	0	2	138421,37	0,200000003	2,47404051	0,00055612747233774925	0,20020585871694211	0,000495317392	0,00059929547216000461	-2,2360519827621763E-005	0,012234796500036285
1	1	0	0	0	0	2	138441,37	0,200000003	2,48702979	0,00055612194236119597	0,2002038679256944	0,000497912988	0,001711542167474849	-6,3859939461405107E-005	0,01334704319535113
1	1	0	0	0	0	2	138461,37	0,200000003	2,54009151	0,00055612588169922426	0,20020528608716272	0,000508539728	0,0028237926650552512	-0,00010535950096282864	0,014459293692931533
1	1	0	0	0	0	2	138481,37	0,200000003	2,55189991	0,00055612619300931699	0,20020539815877853	0,000510904123	0,0039360400948027994	-0,00014685894799928362	0,015571541122679082
1	1	0	0	0	0	2	138501,37	0,200000003	2,5832684	0,00055613406963066918	0,2002082337420217	0,000517191598	0,0050483000877922003	-0,00018835886378718358	0,016683801115668483
1	1	0	0	0	0	2	138521,37	0,200000003	2,61951256	0,00055613306115153773	0,20020787068959114	0,000524447009	0,0061605615389314189	-0,00022985883398061376	0,017796062566807702
1	1	0	0	0	0	2	138541,37	0,200000003	2,64312935	0,00055612611253311238	0,20020536918734941	0,000529168698	0,0072728143231008013	-0,00027135848079774646	0,018908315350977085
1	1	0	0	0	0	2	138561,37	0,200000003	2,68114495	0,00055612791412489274	0,2002060177602889	0,000536781328	0,0083850706849421286	-0,0003128582611026297	0,020020571712818416
1	1	0	0	0	0	2	138581,37	0,200000003	2,71411324	0,0005561216471600864	0,20020376165331162	0,000543375674	0,0094973209098552883	-0,00035435781243047174	0,021132821937731574
1	1	0	0	0	0	2	138601,37	0,200000003	2,9958961	0,0005561338809927305	0,2002081658323744	0,000599802879	0,010609581709827008	-0,00039585775832796704	0,022245082737703296
1	1	0	0	0	0	2	138621,37	0,200000003	3,06813693	0,00055612661758479149	0,20020555100592547	0,000614258053	0,01172183862233164	-0,00043735755917883866	0,02335733965020793
1	1	0	0	0	0	2	138641,37	0,200000003	3,02745509	0,00055613216016938285	0,20020754633606618	0,000606119342	0,012834102979034206	-0,00047885763778274381	0,024469604006910496
1	1	0	0	0	0	2	138661,37	0,200000003	3,05747128	0,00055612733573383763	0,20020580953954163	0,00061212352	0,013946366617373315	-0,00052035768958354266	0,025581867645249606
1	1	0	0	0	0	2	138681,37	0,200000003	3,19313478	0,00055613105326145888	0,2002071478492759	0,000639288395	0,015058631681313139	-0,0005618577945754208	0,026694132709189427
1	1	0	0	0	0	2	138701,37	0,200000003	3,14548206	0,00055612335841606067	0,20020437770536595	0,000629739254	0,016170888602440579	-0,00060335759574802074	0,027806389630316864
1	1	0	0	0	0	2	138721,37	0,200000003	3,24650121	0,00055613050167924819	0,20020694927971114	0,00064997212	0,017283146680522317	-0,00064485744008814131	0,028918647708398605
1	1	0	0	0	0	2	138741,37	0,200000003	3,47575569	0,00055612346808777907	0,2002044171871784	0,000695861643	0,018395399420884771	-0,00068635708527077862	0,030030900448761056
1	1	0	0	0	0	2	138742,17	0,200000003	3,49975348	4,4412199883825254E-005	0,20020522754475206	0,000700668956	0,018439811620768595	-0,00068801416416128205	0,030075312648644883