File: Experimentelles/Rohdaten/Batterietests/AlteZelle/Studenten_Batterietests/S vs Li GCPL 200µm/ECLab-Export/S vs Li GCPL 200µm_04_OCV_C05.mpt
EC-Lab ASCII FILE
Nb header lines : 48

Open Circuit Voltage

Run on channel : 5 (SN 5436)
Grouped channel(s) : 5
User :
CE vs. WE compliance from -10 V to 10 V
Electrode connection : standard
Ewe ctrl range : min = 0,00 V, max = 5,00 V
Acquisition started on : 01.23.2015 15:07:20
Saved on :
	File : S vs Li GCPL 200µm_04_OCV_C05.mpr
	Directory : C:\Hupfer\Studenten Batterietests\S vs Li GCPL 200µm\
	Host : 192.168.0.2
Device : VMP3 (SN 0324)
Address : 192.168.0.1
EC-Lab for windows v10.33 (software)
Internet server v10.33 (firmware)
Command interpretor v10.32 (firmware)
Electrode material : S vs Li
Initial state : charged
Electrolyte : LP30
Comments : 200µm
Mass of active material : 0,001 mg
 at x = 0,000
Molecular weight of active material (at x = 0) : 0,001 g/mol
Atomic weight of intercalated ion : 0,001 g/mol
Acquisition started at : xo = 0,000
Number of e- transfered per intercalated ion : 1
for DX = 1, DQ = 26,801 mA.h
Battery capacity : 0,000 A.h
Reference electrode : Li+/Li (-3,020 V)
Electrode surface area : 0,001 cm²
Characteristic mass : 0,001 g
Create one data file per loop
tR (h:m:s)          3:00:0,0000
dER/dt (mV/h)       0,0
dER (mV)            0,00
dtR (s)             60,0000
E range min (V)     0,000
E range max (V)     5,000

Number of loops : 1
Loop 0 from point number 0 to 180

mode	error	time/s	Ewe/V
3	0	140059,7163	3,00970459
3	0	140119,7163	2,69411516
3	0	140179,7163	2,5995338
3	0	140239,7163	2,56327033
3	0	140299,7164	2,54167247
3	0	140359,7164	2,52862597
3	0	140419,7164	2,52045536
3	0	140479,7164	2,51458931
3	0	140539,7164	2,51087546
3	0	140599,7164	2,50759959
3	0	140659,7164	2,5051806
3	0	140719,7164	2,50350451
3	0	140779,7164	2,50196195
3	0	140839,7164	2,50013351
3	0	140899,7164	2,4994669
3	0	140959,7165	2,4985528
3	0	141019,7165	2,49761939
3	0	141079,7165	2,4971242
3	0	141139,7165	2,496629
3	0	141199,7165	2,49624825
3	0	141259,7165	2,49581003
3	0	141319,7165	2,49533391
3	0	141379,7165	2,49504828
3	0	141439,7165	2,49487686
3	0	141499,7165	2,49470544
3	0	141559,7165	2,49432445
3	0	141619,7166	2,49419117
3	0	141679,7166	2,49419117
3	0	141739,7166	2,49405789
3	0	141799,7166	2,49403882
3	0	141859,7166	2,4938674
3	0	141919,7166	2,49375319
3	0	141979,7166	2,49390554
3	0	142039,7166	2,4936769
3	0	142099,7166	2,49390554
3	0	142159,7166	2,49377227
3	0	142219,7167	2,49384832
3	0	142279,7167	2,4936769
3	0	142339,7167	2,49363899
3	0	142399,7167	2,49361992
3	0	142459,7167	2,49451494
3	0	142519,7167	2,50262856
3	0	142579,7167	2,60416174
3	0	142639,7167	2,53485394
3	0	142699,7167	2,54470086
3	0	142759,7167	2,5271976
3	0	142819,7167	2,59911466
3	0	142879,7168	2,6564045
3	0	142939,7168	2,66598463
3	0	142999,7168	2,66764164
3	0	143059,7168	2,66840339
3	0	143119,7168	2,66849852
3	0	143179,7168	2,66632748
3	0	143239,7168	2,66676545
3	0	143299,7168	2,66280389
3	0	143359,7168	2,6579473
3	0	143419,7168	2,65657592
3	0	143479,7168	2,65392852
3	0	143539,7169	2,64941478
3	0	143599,7169	2,61936045
3	0	143659,7169	2,58955359
3	0	143719,7169	2,60637116
3	0	143779,7169	2,65480471
3	0	143839,7169	2,64703393
3	0	143899,7169	2,65297627
3	0	143959,7169	2,65516663
3	0	144019,7169	2,65789008
3	0	144079,7169	2,65059543
3	0	144139,7170	2,55647111
3	0	144199,7170	2,5069139
3	0	144259,7170	2,50049543
3	0	144319,7170	2,50247622
3	0	144379,7170	2,64326286
3	0	144439,7170	2,65259528
3	0	144499,7170	2,65248108
3	0	144559,7170	2,61918902
3	0	144619,7170	2,54988122
3	0	144679,7170	2,62356949
3	0	144739,7170	2,64552927
3	0	144799,7171	2,66297531
3	0	144859,7171	2,66642261
3	0	144919,7171	2,66133738
3	0	144979,7171	2,65811872
3	0	145039,7171	2,63855863
3	0	145099,7171	2,61796999
3	0	145159,7171	2,57504082
3	0	145219,7171	2,51693201
3	0	145279,7171	2,63097835
3	0	145339,7171	2,62240767
3	0	145399,7172	2,57757378
3	0	145459,7172	2,51104689
3	0	145519,7172	2,1310823
3	0	145579,7172	0,878495395
3	0	145639,7172	-0,295921564
3	0	145699,7172	-0,9092924
3	0	145759,7172	-2,12271643
3	0	145819,7172	-3,3961966
3	0	145879,7172	-4,43616819
3	0	145939,7172	-5,2289505
3	0	145999,7172	-6,81772184
3	0	146059,7173	-7,51559925
3	0	146119,7173	-8,43039989
3	0	146179,7173	-9,35118961
3	0	146239,7173	-10,6421738
3	0	146299,7173	-11,3158054
3	0	146359,7173	-12,3992453
3	0	146419,7173	-12,8582888
3	0	146479,7173	-13,4678135
3	0	146539,7173	-13,4661331
3	0	146599,7173	-13,4663734
3	0	146659,7173	-13,4652529
3	0	146719,7174	-13,4666939
3	0	146779,7174	-13,4666138
3	0	146839,7174	-13,4668531
3	0	146899,7174	-13,4665337
3	0	146959,7174	-13,4637327
3	0	147019,7174	-13,4662132
3	0	147079,7174	-13,4659729
3	0	147139,7174	-13,4658937
3	0	147199,7174	-13,4656534
3	0	147259,7174	-13,4655733
3	0	147319,7175	-13,4666138
3	0	147379,7175	-13,466774
3	0	147439,7175	-13,4648533
3	0	147499,7175	-13,4664936
3	0	147559,7175	-13,4665337
3	0	147619,7175	-13,4649334
3	0	147679,7175	-13,4673738
3	0	147739,7175	-13,4652128
3	0	147799,7175	-13,4648933
3	0	147859,7175	-13,4668131
3	0	147919,7175	-13,4665737
3	0	147979,7176	-13,4661732
3	0	148039,7176	-13,4662132
3	0	148099,7176	-13,4664536
3	0	148159,7176	-13,4655333
3	0	148219,7176	-13,4666939
3	0	148279,7176	-13,4656534
3	0	148339,7176	-13,4665737
3	0	148399,7176	-13,4656134
3	0	148459,7176	-13,4655333
3	0	148519,7176	-13,467494
3	0	148579,7176	-13,4656134
3	0	148639,7177	-13,4665337
3	0	148699,7177	-13,4656134
3	0	148759,7177	-13,4650135
3	0	148819,7177	-13,4668131
3	0	148879,7177	-13,4652529
3	0	148939,7177	-13,4666939
3	0	148999,7177	-13,4658937
3	0	149059,7177	-13,4666138
3	0	149119,7177	-13,4664936
3	0	149179,7177	-13,4655733
3	0	149239,7178	-13,465333
3	0	149299,7178	-13,4672136
3	0	149359,7178	-13,467454
3	0	149419,7178	-13,4672537
3	0	149479,7178	-13,4669733
3	0	149539,7178	-13,4663334
3	0	149599,7178	-13,4667339
3	0	149659,7178	-13,4661732
3	0	149719,7178	-13,4650526
3	0	149779,7178	-13,4664135
3	0	149839,7178	-13,4671736
3	0	149899,7179	-13,467454
3	0	149959,7179	-13,4652529
3	0	150019,7179	-13,4666939
3	0	150079,7179	-13,4661331
3	0	150139,7179	-13,4658136
3	0	150199,7179	-13,4656534
3	0	150259,7179	-13,4662132
3	0	150319,7179	-13,4656534
3	0	150379,7179	-13,4675341
3	0	150439,7179	-13,4658136
3	0	150499,7179	-13,4656134
3	0	150559,7180	-13,4672537
3	0	150619,7180	-13,4665337
3	0	150679,7180	-13,4664135
3	0	150739,7180	-13,4659328
3	0	150799,7180	-13,4667339
3	0	150859,7180	-13,4652929