File: Experimentelles/Rohdaten/Batterietests/AlteZelle/Studenten_Batterietests/S vs Li GCPL 200µm/ECLab-Export/S vs Li GCPL 200µm_02_GCPL_C05_loop1.mpt
EC-Lab ASCII FILE
Nb header lines : 3
mode	ox/red	error	control changes	Ns changes	counter inc.	Ns	time/s	control/V/mA	Ewe/V	dq/mA.h	<I>/mA	P/W	(Q-Qo)/mA.h	x	Capacity/mA.h
1	0	0	1	1	0	1	48670,84	-0,200000003	3,47697496	0	0	0	0	0	0
1	0	0	1	0	0	1	49330,84	-0,200000003	2,12603545	-0,0005547840186076032	-0,19972224632672547	0,000424616563	-0,036613980848874464	0,0013661168534923218	0,036613980848874464
1	0	0	1	0	0	1	49990,84	-0,200000003	2,10497069	-0,00055478185915946963	-0,19972146892539885	0,000420407829	-0,073229739130692326	0,0027323000253975459	0,073229739130692326
1	0	0	1	0	0	1	50650,84	-0,200000003	2,08762002	-0,00055478839814000659	-0,19972382295838774	0,000416947441	-0,10984585203073005	0,0040984964285853427	0,10984585203073005
1	0	0	1	0	0	1	51310,84	-0,200000003	2,05958438	-0,00055479345259401536	-0,19972564256182755	0,000411351823	-0,14646255046826851	0,0054647146789645555	0,14646255046826851
1	0	0	1	0	0	1	51970,84	-0,200000003	2,02958727	-0,0005547860426248775	-0,19972297497294288	0,000405355211	-0,18307883306095014	0,0068309174136130496	0,18307883306095014
1	0	0	1	0	0	1	52630,84	-0,200000003	1,99797118	-0,00055479699539889894	-0,19972691797158323	0,000399048615	-0,21969480780136682	0,0081971086618796288	0,21969480780136682
1	0	0	1	0	0	1	53290,84	-0,200000003	1,9480902	-0,00055478989689466029	-0,19972436251006208	0,000389081077	-0,25631104099021552	0,0095633095532046912	0,25631104099021552
1	0	0	1	0	0	1	53950,84	-0,200000003	1,89678073	-0,00055479675159768922	-0,1997268302031479	0,000378838013	-0,29292729672615494	0,010929511285792024	0,29292729672615494
1	0	0	1	0	0	1	54610,84	-0,200000003	1,88958132	-0,00055479634705103104	-0,1997266845663512	0,000377399818	-0,32954395733498982	0,012295728124731446	0,32954395733498982
1	0	0	1	0	0	1	55270,84	-0,200000003	1,88840055	-0,00055480889608711008	-0,19973120221933126	0,000377172517	-0,3661608207179577	0,013661952529446403	0,3661608207179577
1	0	0	1	0	0	1	55930,84	-0,200000003	1,88881958	-0,00055481134543733466	-0,1997320839854105	0,000377257878	-0,40277785935521171	0,015028183473134406	0,40277785935521171
1	0	0	1	0	0	1	56590,84	-0,200000003	1,88491511	-0,00055479339587357312	-0,19972562214246835	0,000376465847	-0,43939470876254253	0,016394407356399552	0,43939470876254253
1	0	0	1	0	0	1	57250,84	-0,200000003	1,87931573	-0,00055480400420476986	-0,1997294411416921	0,000375354692	-0,47601131056087002	0,017760622001039869	0,47601131056087002
1	0	0	1	0	0	1	57910,84	-0,200000003	1,87438285	-0,00055479723215682643	-0,19972700320443699	0,00037436487	-0,51262786203281261	0,019126834767935104	0,51262786203281261
1	0	0	1	0	0	1	58570,84	-0,200000003	1,86901188	-0,00055479926212794253	-0,19972773399403741	0,0003732935	-0,54924431486316474	0,020493043854379971	0,54924431486316474
1	0	0	1	0	0	1	59230,84	-0,200000003	1,86326003	-0,00055480112365053754	-0,19972840414217037	0,000372145965	-0,5858610789154432	0,021859264552933354	0,5858610789154432
1	0	0	1	0	0	1	59890,84	-0,200000003	1,85676539	-0,00055479975832088128	-0,19972791262349504	0,000370847876	-0,62247785956059021	0,02322548587058897	0,62247785956059021
1	0	0	1	0	0	1	60550,85	-0,200000003	1,84973752	-0,00055479937271028755	-0,19972777380368157	0,000369443966	-0,65909487339402496	0,024591715888813126	0,65909487339402496
1	0	0	1	0	0	1	61210,85	-0,200000003	1,84021461	-0,0005548028881020016	-0,19972903934469626	0,0003675443	-0,69571181719306586	0,025957943293959888	0,69571181719306586
1	0	0	1	0	0	1	61870,85	-0,200000003	1,82983458	-0,00055479683789279725	-0,19972686126938675	0,000365467131	-0,73232871499778189	0,027324168982996547	0,73232871499778189
1	0	0	1	0	0	1	62530,85	-0,200000003	1,81798816	-0,00055480417426509997	-0,19972950236341082	0,000363105879	-0,76894585196751949	0,028690403595601725	0,76894585196751949
1	0	0	1	0	0	1	63190,85	-0,200000003	1,80638921	-0,00055478854055785472	-0,19972387422881299	0,000360779057	-0,80556228401217779	0,03005661190650441	0,80556228401217779
1	0	0	1	0	0	1	63850,85	-0,200000003	1,78724802	-0,00055478686408201856	-0,19972327069751309	0,000356955017	-0,84217803184080614	0,031422794688387078	0,84217803184080614
1	0	0	1	0	0	1	64510,85	-0,200000003	1,77294457	-0,0005547792575202055	-0,1997205323352655	0,000354093441	-0,87879379643390694	0,032788978095774752	0,87879379643390694
1	0	0	1	0	0	1	65170,85	-0,200000003	1,74047148	-0,00055477737385531258	-0,19971985421590528	0,000347606721	-0,91540932523581389	0,034155152705475962	0,91540932523581389
1	0	0	1	0	0	1	65830,85	-0,200000003	1,70302737	-0,00055479012885689734	-0,19972049959537917	0,000340129482	-0,95202512439559258	0,03552133740259287	0,95202512439559258
1	0	0	1	0	0	1	66490,86	-0,200000003	1,64008093	-0,00055478391467697088	-0,19971826179314464	0,000327554124	-0,98864145822910016	0,036887542049105472	0,98864145822910016
1	1	0	0	0	0	2	67134,25	0,200000003	2,17130709	0,00055612974714818925	0,20020275253829098	0,000434701651	-1,0098930311503581	0,03768046680784128	0,0072297206511067008
1	1	0	0	0	0	2	67794,26	0,200000003	2,08998156	0,00055613154801064064	0,20020340034419914	0,000418421405	-0,9731882221122345	0,036310961032488282	0,043934529689230854
1	1	0	0	0	0	2	68454,27	0,200000003	2,08800077	0,00055612406450592813	0,20020070673544598	0,000418019219	-0,93648397705890496	0,034941476300166227	0,080638774742560243
1	1	0	0	0	0	2	69114,29	0,200000003	2,09565711	0,00055612074030935757	0,2001995097302057	0,000419549528	-0,89978009422378893	0,033572005082692723	0,1173426575776769
1	1	0	0	0	0	2	69774,30	0,200000003	2,10453248	0,00055612753308481645	0,20020195532575469	0,000421331526	-0,8630757971033513	0,032202518407676864	0,15404695469811469
1	1	0	0	0	0	2	70434,31	0,200000003	2,11098909	0,0005561294985496336	0,20020266271945808	0,000422625628	-0,82637134903081344	0,030833026100435181	0,19075140277065248
1	1	0	0	0	0	2	71094,33	0,200000003	2,11658835	0,00055611561100184922	0,20019766337447571	0,000423736055	-0,78966728889031923	0,029463548267459635	0,22745546291114714
1	1	0	0	0	0	2	71754,34	0,200000003	2,12512112	0,00055612641233454138	0,20020155178904989	0,000425452541	-0,75296324701771763	0,028094071116083718	0,26415950478374845
1	1	0	0	0	0	2	72414,35	0,200000003	2,12885404	0,00055612770252840384	0,20020201616342838	0,000426200859	-0,71625893885256051	0,026724584028974525	0,30086381294890541
1	1	0	0	0	0	2	73074,37	0,200000003	2,13731027	0,00055612556709597498	0,20020124758142826	0,00042789217	-0,67955450528576768	0,02535509226296169	0,3375682465156985
1	1	0	0	0	0	2	73734,38	0,200000003	2,14264321	0,00055612901680916544	0,20020248920425763	0,000428962492	-0,64285008345650803	0,023985600934892006	0,37427266834495757
1	1	0	0	0	0	2	74394,39	0,200000003	2,14439535	0,00055612665382027635	0,20020163887834707	0,000429311476	-0,60614577969195354	0,02261611401197521	0,41097697210951194
1	1	0	0	0	0	2	75054,40	0,200000003	2,14850926	0,00055613350848191315	0,20020410609757763	0,000430140382	-0,5694410823308903	0,021246612403443478	0,44768166947057472
1	1	0	0	0	0	2	75714,42	0,200000003	2,15608954	0,00055612689255923027	0,20020172489492093	0,00043165285	-0,53273671633349574	0,019877123158535747	0,48438603546796954
1	1	0	0	0	0	2	76374,43	0,200000003	2,16683125	0,00055612967689086989	0,20020272666816195	0,000433805515	-0,49603221848580634	0,018507628994116243	0,52109053331565888
1	1	0	0	0	0	2	77034,44	0,200000003	2,1644125	0,0005561289448026153	0,20020246378349466	0,000433320703	-0,45932757109644166	0,01713812925009577	0,55779518070502413
1	1	0	0	0	0	2	77694,46	0,200000003	2,1668694	0,00055612859724379251	0,2002023379492919	0,000433812325	-0,4226230595452423	0,015768634574379882	0,594499692256224
1	1	0	0	0	0	2	78354,47	0,200000003	2,16616488	0,00055612356068359488	0,20020052556691747	0,000433667359	-0,38591836888174976	0,014399133215743514	0,63120438291971622
1	1	0	0	0	0	2	79014,48	0,200000003	2,16850734	0,00055612143537071008	0,20019975972361104	0,00043413465	-0,3492139570981968	0,013029642262492654	0,66790879470326912
1	1	0	0	0	0	2	79674,50	0,200000003	2,27596402	0,00055612470299171072	0,20020093678738214	0,000455650123	-0,31250958389652698	0,011660152748783726	0,70461316790493939
1	1	0	0	0	0	2	80334,51	0,200000003	2,24253845	0,00055612954604708486	0,20020267950939546	0,000448962208	-0,2758050123530248	0,010290655834674358	0,74131773944844186
1	1	0	0	0	0	2	80994,52	0,200000003	2,22457838	0,00055614567631896998	0,20020848703832122	0,000445379468	-0,23910021816373904	0,008921150613351456	0,77802253363772787
1	1	0	0	0	0	2	81654,54	0,200000003	2,22294044	0,00055613628765443962	0,20020510644240477	0,000445044017	-0,20239507764515725	0,0075516324700168755	0,81472767415630976
1	1	0	0	0	0	2	82314,55	0,200000003	2,21779799	0,00055612416558464371	0,20020074332699178	0,000444004807	-0,16569060688004013	0,0061821393160845542	0,85143214492142733
1	1	0	0	0	0	2	82974,56	0,200000003	2,22124529	0,00055613405275262067	0,20020430189132147	0,000444702862	-0,1289859932082745	0,0048126408301130355	0,88813675859319283
1	1	0	0	0	0	2	83634,57	0,200000003	2,22794938	0,00055613409300727974	0,20020431713084742	0,000446045073	-0,092281090027353318	0,0034431315421656749	0,9248416617741143
1	1	0	0	0	0	2	84294,59	0,200000003	2,234025	0,00055612753583987552	0,20020195584910346	0,00044725617	-0,055576494628891629	0,002073633737995696	0,961546257172576
1	1	0	0	0	0	2	84954,60	0,200000003	2,24190998	0,0005561333308418592	0,20020404275438746	0,000448839448	-0,018872124824546563	0,0007041443510455223	0,99825062697692109
1	1	0	0	0	0	2	85614,61	0,200000003	2,25827026	0,00055613016065292883	0,20020290076545677	0,000452112261	0,017832470279502912	-0,00066535344213954125	1,0349552220809706
1	1	0	0	0	0	2	86274,63	0,200000003	2,28228712	0,00055613318111581939	0,20020398885407827	0,000456922979	0,054537170601218669	-0,0020348551611372003	1,071659922402688
1	1	0	0	0	0	2	86934,64	0,200000003	2,3436718	0,00055612370603448806	0,2002005771464145	0,000469204446	0,091241644912237645	-0,003404348447371888	1,1083643967137075
1	1	0	0	0	0	2	87594,65	0,200000003	3,04962444	0,00055613365399340781	0,20020415908897667	0,000610547489	0,12794632564523702	-0,0047738494354882022	1,1450690774467066
1	1	0	0	0	0	2	87718,83	0,200000003	3,49998212	0,00023208050451344912	0,20020368351988355	0,000700709294	0,13485198559450998	-0,0050315088929541254	1,1519747373959792