File: Experimentelles/Rohdaten/Batterietests/AlteZelle/Studenten_Batterietests/LiNiMnO_LATP_LTO-Spinell/ZView-Export/LiNiMnO-LATP-LTO_Spinell_04_GCPL_C01.txt
EC-Lab ASCII FILE
Nb header lines : 71

Galvanostatic Cycling with Potential Limitation

Run on channel : 1 (SN 6985)
Grouped channel(s) : 1
User :
CE vs. WE compliance from -10 V to 10 V
Electrode connection : standard
Ewe ctrl range : min = -5,00 V, max = 5,00 V
Acquisition started on : 02.09.2015 13:33:11
Saved on :
	File : LiNiMnO-LATP-LTO_Spinell_04_GCPL_C01.mpr
	Directory : C:\Hupfer\Studenten Batterietests\LiNiMnO_LATP_LTO-Spinell\
	Host : 192.168.0.2
Device : VMP3 (SN 0324)
Address : 192.168.0.1
EC-Lab for windows v10.33 (software)
Internet server v10.33 (firmware)
Command interpretor v10.32 (firmware)
Electrode material :
Initial state :
Electrolyte :
Comments :
Mass of active material : 0,001 mg
 at x = 0,000
Molecular weight of active material (at x = 0) : 0,001 g/mol
Atomic weight of intercalated ion : 0,001 g/mol
Acquisition started at : xo = 0,000
Number of e- transfered per intercalated ion : 1
for DX = 1, DQ = 26,801 mA.h
Battery capacity : 0,000 A.h
Electrode surface area : 0,001 cm²
Characteristic mass : 0,001 g
Ns                  0                   1
Set I/C             I                   I
Is                  0,000               500,000
unit Is             mA                  nA
vs.                 <None>              <None>
N                   1                   1
I sign              > 0                 > 0
t1 (h:m:s)          0:00:0,0000         10:00:0,0000
I Range             1 mA                1 mA
Bandwidth           5                   5
dE1 (mV)            0,00                0,00
dt1 (s)             0,0000              10,0000
EM (V)              0,000               3,000
tM (h:m:s)          0:00:0,0000         0:00:0,0000
Im                  0,000               0,000
unit Im             mA                  mA
E range min (V)     -5,000              -5,000
E range max (V)     5,000               5,000
dq                  0,000               1,000
unit dq             mA.h                mA.h
dtq (s)             0,0000              120,0000
dQM                 0,000               0,000
unit dQM            mA.h                mA.h
dxM                 0,000               0,000
tR (h:m:s)          0:00:0,0000         0:00:0,0000
dER/dt (mV/h)       0,0                 0,1
dER (mV)            0,00                5,00
dtR (s)             1,0000              120,0000
EL (V)              pass                4,200
goto Ns'            0                   0
nc cycles           0                   0

Number of loops : 1
Loop 0 from point number 0 to 3600

mode	ox/red	error	control changes	Ns changes	counter inc.	Ns	time/s	control/V/mA	Ewe/V	dq/mA.h	<I>/mA	P/W	(Q-Qo)/mA.h	x	Capacity/mA.h
1	1	0	1	1	0	1	1213,4370	0,000500000024	0,450066209	0	0	0	0	0	0
1	1	0	1	0	0	1	1873,4370	0,000500000024	1,45932758	1,8998450264043642E-006	0,00068394422678345549	9,98098699E-007	0,00012520800309761643	-4,6716789395226554E-006	0,00012520800309761643
1	1	0	1	0	0	1	2533,4369	0,000500000024	1,58430374	1,8960328307940573E-006	0,00068257183632907558	1,08140114E-006	0,00025030526920086416	-9,339226132897943E-006	0,00025030526920086416
1	1	0	1	0	0	1	3193,4369	0,000500000024	1,61592484	1,8959632287668582E-006	0,00068254677959865101	1,10294434E-006	0,00037512004737432941	-1,3996233321803984E-005	0,00037512004737432941
1	1	0	1	0	0	1	3853,4369	0,000500000024	1,62300909	1,8919394016298208E-006	0,0006810982017927232	1,10542862E-006	0,00049989792179750413	-1,8651863582169062E-005	0,00049989792179750413
1	1	0	1	0	0	1	4513,4369	0,000500000024	1,62573969	1,8865366121430675E-006	0,00067915318859414323	1,10412634E-006	0,00062452209408101555	-2,3301759009048586E-005	0,00062452209408101555
1	1	0	1	0	0	1	5173,4369	0,000500000024	1,63547802	1,8833875772090528E-006	0,00067801953600417254	1,10888607E-006	0,00074899051150280755	-2,7945843012622714E-005	0,00074899051150280755
1	1	0	1	0	0	1	5833,4369	0,000500000024	1,63797951	1,8868383382699296E-006	0,00067926181000112896	1,11261693E-006	0,0008734392531924585	-3,2589192888176352E-005	0,0008734392531924585
1	1	0	1	0	0	1	6493,4369	0,000500000024	1,64210403	1,8878360804745978E-006	0,00067962099719915802	1,11600843E-006	0,0009980582615262048	-3,7238895641147136E-005	0,0009980582615262048
1	1	0	1	0	0	1	7153,4369	0,000500000024	1,6483289	1,8728748906287366E-006	0,00067423496878943834	1,11136103E-006	0,0011225730089586578	-4,1884708279710387E-005	0,0011225730089586578
1	1	0	1	0	0	1	7813,4369	0,000500000024	1,6554513	1,8841842871075238E-006	0,00067830635157109478	1,12290309E-006	0,0012468748200117355	-4,6522575975663149E-005	0,0012468748200117355
1	1	0	1	0	0	1	8473,4368	0,000500000024	1,6606642	1,8867828683061008E-006	0,00067924184081390861	1,12799262E-006	0,0013714599920146202	-5,1171016249636045E-005	0,0013714599920146202
1	1	0	1	0	0	1	9133,4368	0,000500000024	1,666641	1,8871722144605075E-006	0,00067938200543119206	1,13228589E-006	0,0014959475491997978	-5,581581438351577E-005	0,0014959475491997978
1	1	0	1	0	0	1	9793,4368	0,000500000024	1,66587722	1,881861638762833E-006	0,00067747019815688256	1,1285822E-006	0,0016205724673206557	-6,0465737638589478E-005	0,0016205724673206557
1	1	0	1	0	0	1	10453,4368	0,000500000024	1,67133832	1,8909299996481018E-006	0,00068073480811510464	1,1377382E-006	0,0017451222943703232	-6,5112859144836058E-005	0,0017451222943703232
1	1	0	1	0	0	1	11113,4368	0,000500000024	1,67282772	1,8883190524098205E-006	0,00067979486709794342	1,13717965E-006	0,0018698937212765446	-6,9768248839674829E-005	0,0018698937212765446
1	1	0	1	0	0	1	11773,4368	0,000500000024	1,68365455	1,8846782117098982E-006	0,0006784841644301024	1,14233296E-006	0,0019941836071217094	-7,4405671590086733E-005	0,0019941836071217094
1	1	0	1	0	0	1	12433,4368	0,000500000024	1,68443739	1,8874647533844432E-006	0,00067948731944508403	1,14455383E-006	0,0021185269255300445	-7,9045087981271373E-005	0,0021185269255300445
1	1	0	1	0	0	1	13093,4368	0,000500000024	1,68502939	1,8888977714846586E-006	0,00068000320596740736	1,14582542E-006	0,0022431982142935341	-8,3696741387367654E-005	0,0022431982142935341
1	1	0	1	0	0	1	13753,4368	0,000500000024	1,6898222	1,8883953673454624E-006	0,00067982234047510694	1,14877889E-006	0,0023676361090669293	-8,8339686549891968E-005	0,0023676361090669293
1	1	0	1	0	0	1	14413,4368	0,000500000024	1,68691981	1,8887129913297638E-006	0,00067993668511083994	1,14699867E-006	0,0024921624082592317	-9,2985930200146701E-005	0,0024921624082592317
1	1	0	1	0	0	1	15073,4368	0,000500000024	1,68949759	1,8759423129797344E-006	0,00067533924084916723	1,14098407E-006	0,0026161702707755674	-9,7612830280975616E-005	0,0026161702707755674
1	1	0	1	0	0	1	15733,4368	0,000500000024	1,69388938	1,884292752000167E-006	0,00067834539893291904	1,14904208E-006	0,0027401501555201917	-0,00010223868647352544	0,0027401501555201917
1	1	0	1	0	0	1	16393,4367	0,000500000024	1,69505417	1,8850866359555059E-006	0,00067863119716128883	1,15031662E-006	0,0028643206306093882	-0,0001068716538480827	0,0028643206306093882
1	1	0	1	0	0	1	17053,4367	0,000500000024	1,69509232	1,8910469458399648E-006	0,00068077690874468506	1,15397972E-006	0,002988815895567465	-0,00011151673956933251	0,002988815895567465
1	1	0	1	0	0	1	17713,4367	0,000500000024	1,69925511	1,8944083193653366E-006	0,00068198700322846976	1,15886985E-006	0,0031136515825191123	-0,00011617452689286469	0,0031136515825191123
1	1	0	1	0	0	1	18373,4367	0,000500000024	1,69308746	1,8822990341351315E-006	0,00067762766049281651	1,14728289E-006	0,0032383166975697267	-0,00012082594994943293	0,0032383166975697267
1	1	0	1	0	0	1	19033,4367	0,000500000024	1,70311224	1,8947648073501318E-006	0,00068211533890454976	1,16171896E-006	0,0033631899415352896	-0,00012548513857565024	0,0033631899415352896
1	1	0	1	0	0	1	19693,4367	0,000500000024	1,70129824	1,8940811569045763E-006	0,00068186922474117005	1,16006288E-006	0,0034883241050265581	-0,00013015406246018166	0,0034883241050265581
1	1	0	1	0	0	1	20353,4367	0,000500000024	1,70989096	1,8990797606432656E-006	0,00068366872210888512	1,16899901E-006	0,0036132831127954893	-0,00013481645104921328	0,0036132831127954893
1	1	0	1	0	0	1	21013,4367	0,000500000024	1,70574737	1,8925530983995283E-006	0,00068131912367269261	1,16215836E-006	0,0037384267417682714	-0,00013948572810358643	0,0037384267417682714
1	1	0	1	0	0	1	21673,4367	0,000500000024	1,7042197	1,8889225032891974E-006	0,00068001210941714918	1,15889009E-006	0,0038633429755733094	-0,00014414652073851501	0,0038633429755733094
1	1	0	1	0	0	1	22333,4367	0,000500000024	1,70855427	1,8889963443539779E-006	0,00068003869220079206	1,16188301E-006	0,0039877761229438266	-0,00014878928876905498	0,0039877761229438266
1	1	0	1	0	0	1	22993,4367	0,000500000024	1,71485555	1,8937734252508058E-006	0,0006817584413444713	1,16911724E-006	0,0041126576548140774	-0,00015344878662813939	0,0041126576548140774
1	1	0	1	0	0	1	23653,4367	0,000500000024	1,71840727	1,8995510738879805E-006	0,0006838383948790368	1,17511286E-006	0,0042375306383972544	-0,00015810796553913978	0,0042375306383972544
1	1	0	1	0	0	1	24313,4367	0,000500000024	1,71854091	1,8977467288172598E-006	0,0006831888306457129	1,17408797E-006	0,004362818962617801	-0,00016278264136775187	0,004362818962617801
1	1	0	1	0	0	1	24973,4366	0,000500000024	1,71191502	1,8959243647437283E-006	0,00068253277957129869	1,16843808E-006	0,0044879419689820902	-0,00016745114896487478	0,0044879419689820902
1	1	0	1	0	0	1	25633,4366	0,000500000024	1,72050774	1,8854830476532998E-006	0,00067877390537323507	1,16783576E-006	0,00461277064735952	-0,00017210867478907974	0,00461277064735952
1	1	0	1	0	0	1	26293,4366	0,000500000024	1,71920919	1,8935575532798086E-006	0,00068168072743397158	1,17195179E-006	0,0047374918543283424	-0,00017676219071053274	0,0047374918543283424
1	1	0	1	0	0	1	26953,4366	0,000500000024	1,71833086	1,8981067500264749E-006	0,00068331843828259942	1,17416721E-006	0,0048625380348872019	-0,00018142783183356166	0,0048625380348872019
1	1	0	1	0	0	1	27613,4366	0,000500000024	1,72043133	1,8941899751015523E-006	0,00068190839929255578	1,17317654E-006	0,0049875688942365107	-0,00018609290130166266	0,0049875688942365107
1	1	0	1	0	0	1	28273,4366	0,000500000024	1,72528148	1,8933494548190438E-006	0,00068160581198718912	1,17596187E-006	0,0051124582222069453	-0,00019075269004372685	0,0051124582222069453
1	1	0	1	0	0	1	28933,4366	0,000500000024	1,72535777	1,8969931224742646E-006	0,00068291753235895002	1,1782771E-006	0,0052376365516966464	-0,0001954232618210416	0,0052376365516966464
1	1	0	1	0	0	1	29593,4366	0,000500000024	1,7253387	1,8967995094491117E-006	0,00068284783166905101	1,17814375E-006	0,0053625507984995968	-0,00020008398031825078	0,0053625507984995968
1	1	0	1	0	0	1	30253,4366	0,000500000024	1,721367	1,8901774542496749E-006	0,00068046389176839091	1,17132811E-006	0,0054876917493943552	-0,00020475315744993213	0,0054876917493943552
1	1	0	1	0	0	1	30913,4366	0,000500000024	1,72547233	1,8925463853358653E-006	0,00068131670696974477	1,17559307E-006	0,0056124632186935251	-0,0002094085487265088	0,0056124632186935251
1	1	0	1	0	0	1	31573,4366	0,000500000024	1,73236561	1,9035031793593792E-006	0,00068526115286596595	1,18712285E-006	0,005737725339462832	-0,00021408224686912422	0,005737725339462832
1	1	0	1	0	0	1	32233,4366	0,000500000024	1,72530055	1,8886907326393862E-006	0,00067992867198220723	1,17308127E-006	0,0058628738190027392	-0,00021875170490467846	0,0058628738190027392
1	1	0	1	0	0	1	32893,4366	0,000500000024	1,73305309	1,8894015893488864E-006	0,00068018457089865664	1,17879597E-006	0,0059879141911798989	-0,0002234171293091767	0,0059879141911798989
1	1	0	1	0	0	1	33553,4366	0,000500000024	1,73775041	1,8999315870266096E-006	0,00068397537005557594	1,18857849E-006	0,00611286807032144	-0,0002280793265422249	0,00611286807032144
1	1	0	1	0	0	1	34213,4366	0,000500000024	1,72921503	1,8957911686092202E-006	0,00068248481942809216	1,18016305E-006	0,0062377532691809459	-0,00023273896122160874	0,0062377532691809459
1	1	0	1	0	0	1	34873,4366	0,000500000024	1,72596884	1,8955604577947974E-006	0,00068240176353505472	1,17780417E-006	0,0063630020882488128	-0,00023741216305985914	0,0063630020882488128
1	1	0	1	0	0	1	35533,4366	0,000500000024	1,7363565	1,8931876402412957E-006	0,00068154754921738509	1,18340949E-006	0,0064882299586166464	-0,00024208458327394541	0,0064882299586166464
1	1	0	1	0	0	1	36193,4366	0,000500000024	1,72822201	1,8906844510767971E-006	0,00068064640111984422	1,17630805E-006	0,0066130956834841485	-0,00024674349135250454	0,0066130956834841485
1	1	0	1	0	0	1	36853,4366	0,000500000024	1,72803104	1,8807967678197504E-006	0,00067708683515393766	1,17002708E-006	0,0067379188400052723	-0,00025140081114882653	0,0067379188400052723
1	1	0	1	0	0	1	37213,4366	0,000500000024	1,73423696	1,8961511889000477E-006	0,00068261442673254874	1,18381513E-006	0,0068059190806391859	-0,0002539379915541737	0,0068059190806391859