File: Experimentelles/Rohdaten/Batterietests/AlteZelle/Studenten_Batterietests/LiNiMnO_LATP_LTO-Spinell/ZView-Export/LiNiMnO-LATP-LTO_Spinell_03_OCV_C01.txt
EC-Lab ASCII FILE
Nb header lines : 46

Open Circuit Voltage

Run on channel : 1 (SN 6985)
Grouped channel(s) : 1
User :
CE vs. WE compliance from -10 V to 10 V
Electrode connection : standard
Ewe ctrl range : min = -5,00 V, max = 5,00 V
Acquisition started on : 02.09.2015 13:33:11
Saved on :
	File : LiNiMnO-LATP-LTO_Spinell_03_OCV_C01.mpr
	Directory : C:\Hupfer\Studenten Batterietests\LiNiMnO_LATP_LTO-Spinell\
	Host : 192.168.0.2
Device : VMP3 (SN 0324)
Address : 192.168.0.1
EC-Lab for windows v10.33 (software)
Internet server v10.33 (firmware)
Command interpretor v10.32 (firmware)
Electrode material :
Initial state :
Electrolyte :
Comments :
Mass of active material : 0,001 mg
 at x = 0,000
Molecular weight of active material (at x = 0) : 0,001 g/mol
Atomic weight of intercalated ion : 0,001 g/mol
Acquisition started at : xo = 0,000
Number of e- transfered per intercalated ion : 1
for DX = 1, DQ = 26,801 mA.h
Battery capacity : 0,000 A.h
Electrode surface area : 0,001 cm²
Characteristic mass : 0,001 g
tR (h:m:s)          0:10:0,0000
dER/dt (mV/h)       0,0
dER (mV)            0,00
dtR (s)             5,0000
E range min (V)     -5,000
E range max (V)     5,000

Number of loops : 1
Loop 0 from point number 0 to 120

mode	error	time/s	Ewe/V
3	0	613,4360	0,471703619
3	0	618,4360	0,471509814
3	0	623,4360	0,470249534
3	0	628,4360	0,47011587
3	0	633,4360	0,471395224
3	0	638,4360	0,472178131
3	0	643,4360	0,46988675
3	0	648,4360	0,467232555
3	0	653,4360	0,465189397
3	0	658,4360	0,464540154
3	0	663,4360	0,46429193
3	0	668,4360	0,463986397
3	0	673,4360	0,464368314
3	0	678,4360	0,465189397
3	0	683,4360	0,468607366
3	0	688,4360	0,47000131
3	0	693,4360	0,469867647
3	0	698,4360	0,471414328
3	0	703,4360	0,471280664
3	0	708,4360	0,470593244
3	0	713,4360	0,470784187
3	0	718,4360	0,470726907
3	0	723,4360	0,47005859
3	0	728,4360	0,467996329
3	0	733,4360	0,465227574
3	0	738,4360	0,464501977
3	0	743,4360	0,458907157
3	0	748,4360	0,457818747
3	0	753,4360	0,453904301
3	0	758,4360	0,45149833
3	0	763,4360	0,451135546
3	0	768,4360	0,45258674
3	0	773,4360	0,455317318
3	0	778,4360	0,461733222
3	0	783,4360	0,461962342
3	0	788,4360	0,460301101
3	0	793,4360	0,455088168
3	0	798,4360	0,455489188
3	0	803,4360	0,455298215
3	0	808,4360	0,454591721
3	0	813,4360	0,461045802
3	0	818,4360	0,461962342
3	0	823,4360	0,462153286
3	0	828,4360	0,461714119
3	0	833,4360	0,453980684
3	0	838,4360	0,451689303
3	0	843,4360	0,448252201
3	0	848,4360	0,450524509
3	0	853,4360	0,451918423
3	0	858,4360	0,451822966
3	0	863,4360	0,450696349
3	0	868,4360	0,449416995
3	0	873,4360	0,448538631
3	0	878,4360	0,450314462
3	0	883,4360	0,45172748
3	0	888,4360	0,451593816
3	0	893,4360	0,453656077
3	0	898,4360	0,460205615
3	0	903,4360	0,461083978
3	0	908,4360	0,461504072
3	0	913,4360	0,461313128
3	0	918,4360	0,461351305
3	0	923,4360	0,461217642
3	0	928,4360	0,461083978
3	0	933,4360	0,460988522
3	0	938,4360	0,460568428
3	0	943,4360	0,460606605
3	0	948,4360	0,460339278
3	0	953,4360	0,459480017
3	0	958,4360	0,454878151
3	0	963,4360	0,453178704
3	0	968,4360	0,452720404
3	0	973,4360	0,448958725
3	0	978,4360	0,448462248
3	0	983,4360	0,447583884
3	0	988,4360	0,447641164
3	0	993,4360	0,449779809
3	0	998,4360	0,454553515
3	0	1003,4360	0,462153286
3	0	1008,4360	0,464941144
3	0	1013,4360	0,466774255
3	0	1018,4360	0,467480779
3	0	1023,4360	0,465418518
3	0	1028,4360	0,465303957
3	0	1033,4360	0,46314624
3	0	1038,4360	0,460625708
3	0	1043,4360	0,459881008
3	0	1048,4360	0,459059924
3	0	1053,4360	0,453503311
3	0	1058,4360	0,449779809
3	0	1063,4360	0,449436098
3	0	1068,4360	0,447316557
3	0	1073,4360	0,44567439
3	0	1078,4360	0,448061258
3	0	1083,4360	0,450238079
3	0	1088,4360	0,454114348
3	0	1093,4360	0,460511148
3	0	1098,4360	0,465093911
3	0	1103,4360	0,465284854
3	0	1108,4360	0,460339278
3	0	1113,4360	0,458028793
3	0	1118,4360	0,4516702
3	0	1123,4360	0,447545707
3	0	1128,4360	0,444929689
3	0	1133,4360	0,447392941
3	0	1138,4360	0,451765656
3	0	1143,4360	0,453675151
3	0	1148,4360	0,460148335
3	0	1153,4360	0,464100987
3	0	1158,4360	0,463814557
3	0	1163,4360	0,457971513
3	0	1168,4360	0,448767781
3	0	1173,4360	0,445559829
3	0	1178,4360	0,446113586
3	0	1183,4360	0,451211929
3	0	1188,4360	0,454133451
3	0	1193,4360	0,462668866
3	0	1198,4360	0,464712024
3	0	1203,4360	0,463356286
3	0	1208,4360	0,45869711
3	0	1213,4360	0,456787616