File: Experimentelles/Rohdaten/Batterietests/AlteZelle/Studenten_Batterietests/Sonstige/ECLab-Export/LiCoO2 vs Li_02_CV_C01_loop4.mpt
EC-Lab ASCII FILE
Nb header lines : 3
mode	ox/red	error	control changes	counter inc.	time/s	control/V	Ewe/V	<I>/mA	cycle number	(Q-Qo)/C	P/W
2	0	0	1	0	6560,51	3,10376644	3,10400128	-0,48510423302650451	5	0	0,0015057642
2	0	0	0	0	6566,29	3,04596066	3,04595852	-0,43688322774445075	5	-0,0024993252	0,00133072818
2	0	0	1	0	6572,09	2,98795509	2,98822737	-0,45078720183422406	5	-0,00507588591	0,00134705461
2	0	0	1	0	6577,89	2,92994976	2,93026567	-0,4643807600562777	5	-0,00773262233	0,00136075902
2	0	0	0	0	6583,69	2,87194419	2,8721633	-0,47767340485006746	5	-0,010467411	0,00137195596
2	0	0	1	0	6589,49	2,81393909	2,81421137	-0,49073284181455891	5	-0,0132792015	0,001381026
2	0	0	0	0	6595,29	2,75593352	2,75613952	-0,5033005947868041	5	-0,0161651708	0,00138716667
2	0	0	0	0	6601,09	2,69792795	2,6982677	-0,51505224375675238	5	-0,0191221889	0,00138974888
2	0	0	1	0	6606,89	2,63992286	2,64016557	-0,52663899554560525	5	-0,0221476126	0,0013904142
2	0	0	0	0	6612,69	2,58191729	2,58215356	-0,53648458685105107	5	-0,0252349712	0,00138528564
2	0	0	0	0	6618,49	2,52391171	2,52395129	-0,54430631610254387	5	-0,0283735208	0,00137380266
2	0	0	1	0	6624,29	2,46590614	2,46643043	-0,54805714481820678	5	-0,0315466858	0,00135174487
2	0	0	0	0	6630,09	2,40790105	2,40812778	-0,54689729074016346	5	-0,0347286649	0,0013169985
2	0	0	0	0	6635,89	2,34989619	2,34999633	-0,53902061299479341	5	-0,0378842205	0,00126669649
2	0	0	1	0	6641,70	2,29188991	2,2921741	-0,52373945744087334	5	-0,0409723483	0,00120050204
2	0	0	0	0	6647,50	2,23388481	2,23410201	-0,50259403605014438	5	-0,0439541638	0,00112284638
2	0	0	1	0	6653,30	2,17587924	2,17609	-0,4785006645446016	5	-0,0468032099	0,00104126055
2	0	0	1	0	6659,10	2,11787391	2,11826825	-0,45488937012851149	5	-0,0495116748	0,00096357771
2	0	0	0	0	6664,90	2,05986857	2,06014609	-0,43404143241544448	5	-0,0520895161	0,000894188765
2	0	0	1	0	6670,70	2,001863	2,00201416	-0,41713804674024454	5	-0,0545584224	0,000835116254
2	0	0	0	0	6676,50	1,94385767	1,94386184	-0,4050902004043255	5	-0,0569439121	0,000787439407
2	0	0	0	0	6682,30	1,88585222	1,88619065	-0,39799469554176013	5	-0,0592736118	0,0007506939
2	0	0	1	0	6688,10	1,827847	1,82814848	-0,39483504230156717	5	-0,0615746565	0,000721817079
2	0	0	0	0	6693,90	1,76984143	1,77010643	-0,39672584412619648	5	-0,0638719052	0,000702246965
2	0	0	0	0	6699,70	1,71183598	1,71223497	-0,40294419011722125	5	-0,066192627	0,000689935114
2	0	0	1	0	6705,50	1,65383065	1,65406251	-0,41467099233220141	5	-0,0685669556	0,000685891719
2	0	0	0	0	6711,30	1,59582531	1,59614086	-0,42530362618466099	5	-0,0710036084	0,000678844517
2	0	0	0	0	6717,10	1,53781962	1,53793824	-0,4408250150172224	5	-0,0735164285	0,000677961623
2	0	0	1	0	6722,90	1,47981453	1,4803977	-0,46232536528259635	5	-0,0761357993	0,000684425409
2	0	0	0	0	6728,70	1,42180908	1,42215514	-0,49307557459299776	5	-0,0789047033	0,000701229961
2	0	0	1	0	6734,50	1,36380363	1,36412311	-0,53542759253954131	5	-0,0818840414	0,000730389147
2	0	0	1	0	6740,30	1,30579817	1,3062315	-0,59699666934708787	5	-0,0851605758	0,000779815833
2	0	0	0	0	6746,11	1,24779296	1,24831975	-0,68384308864672947	5	-0,0888655558	0,000853654812
2	0	0	1	0	6751,91	1,18978739	1,18991685	-0,79827807967861376	5	-0,0931558385	0,000949884532
2	0	0	1	0	6757,71	1,13178194	1,13196504	-0,93389843093852147	5	-0,0981720835	0,00105714041
2	0	0	0	0	6763,55	1,07337654	1,07386279	-1,0954472996915374	5	-0,10408365	0,00117636006
2	0	0	1	0	6769,35	1,01537108	1,01563036	-1,3272987250238693	5	-0,111057371	0,00134804484
2	1	0	0	0	6775,07	1,04177356	1,04192472	-1,0318297467504962	5	-0,118145555	0,00107508886
2	1	0	1	0	6780,87	1,09977889	1,10011697	-0,68966321600600896	5	-0,123063952	0,000758710201
2	1	0	0	0	6786,71	1,15818441	1,15875053	-0,47378853817160051	5	-0,126404449	0,000549002725
2	1	0	1	0	6792,51	1,21618974	1,21653199	-0,33899844080830688	5	-0,128730595	0,000412402442
2	1	0	1	0	6798,31	1,27419531	1,27439356	-0,24764201929792762	5	-0,130411938	0,000315593381
2	1	0	0	0	6804,11	1,33220077	1,33244562	-0,18123816419392867	5	-0,131642297	0,000241489994
2	1	0	1	0	6809,91	1,3902061	1,39055777	-0,12947599291025291	5	-0,132534876	0,000180043848
2	1	0	1	0	6815,71	1,44821143	1,4483192	-0,087383167759981222	5	-0,133157834	0,00012655872
2	1	0	0	0	6821,55	1,50661695	1,50676227	-0,049539911638324608	5	-0,133552462	7,46448713E-005
2	1	0	1	0	6827,35	1,56462228	1,56512499	-0,012515864965583544	5	-0,133730233	1,95888933E-005
2	1	0	0	0	6833,23	1,62342787	1,62385869	0,026850200199987629	5	-0,133687481	4,36009323E-005
2	1	0	0	0	6839,03	1,6814332	1,68177032	0,069977090732815437	5	-0,133406281	0,000117685391
2	1	0	1	0	6844,87	1,73983872	1,740013	0,11466478234312171	5	-0,132864535	0,00019951821
2	1	0	0	0	6850,68	1,79784405	1,79804504	0,16016342712100595	5	-0,132063165	0,000287981064
2	1	0	0	0	6856,48	1,85584962	1,85615718	0,20449251076206531	5	-0,131001517	0,000379570236
2	1	0	1	0	6862,28	1,91385484	1,91400862	0,24540408421307712	5	-0,12969172	0,000469705526
2	1	0	0	0	6868,08	1,97186041	1,97221112	0,28053159623717238	5	-0,128159761	0,000553267542
2	1	0	1	0	6873,88	2,0298655	2,03024364	0,30861786926099731	5	-0,126443803	0,000626569439
2	1	0	1	0	6879,68	2,08787107	2,08821487	0,3284195709663127	5	-0,1245896	0,000685810635
2	1	0	0	0	6885,48	2,14587641	2,1461165	0,34102000622078778	5	-0,122642606	0,000731868669
2	1	0	1	0	6891,28	2,20388198	2,20423889	0,34836334704111008	5	-0,120637976	0,000767876045
2	1	0	1	0	6897,08	2,26188731	2,26202035	0,35305692744441242	5	-0,118599713	0,000798621972
2	1	0	0	0	6902,88	2,31989264	2,32017255	0,35613373379843872	5	-0,116540007	0,00082629174
2	1	0	1	0	6908,68	2,37789822	2,3780942	0,35796367516741158	5	-0,114466831	0,000851271325
2	1	0	1	0	6914,48	2,43590426	2,4364481	0,35948737885796781	5	-0,11238379	0,000875872327
2	1	0	0	0	6920,28	2,49390912	2,49421835	0,36123558001903168	5	-0,11029093	0,0009010004
2	1	0	1	0	6926,08	2,55191445	2,55227065	0,36354968448479853	5	-0,108186953	0,000927877205
2	1	0	0	0	6931,88	2,60991979	2,61033273	0,36721824621781619	5	-0,106065013	0,000958561781
2	1	0	0	0	6937,68	2,66792512	2,66798377	0,37425745542471578	5	-0,103913136	0,000998512842
2	1	0	1	0	6943,48	2,72593069	2,72619629	0,3850306655901168	5	-0,101709776	0,00104966923
2	1	0	0	0	6949,28	2,78393602	2,78412771	0,4005576454413431	5	-0,0994308963	0,0011152036
2	1	0	0	0	6955,09	2,8419416	2,84214997	0,42218288887912922	5	-0,0970469713	0,00119990704
2	1	0	1	0	6960,89	2,89994693	2,90016174	0,45296516238401184	5	-0,0945074037	0,00131367228
2	1	0	0	0	6966,69	2,9579525	2,9580133	0,47833384635547558	5	-0,0918021202	0,00141491788
2	1	0	1	0	6972,49	3,01595759	3,0161159	0,50523834722116678	5	-0,0889480636	0,00152385747
2	1	0	1	0	6978,29	3,07396317	3,0741477	0,53437506593763693	5	-0,0859320462	0,0016427479
2	1	0	0	0	6984,09	3,1319685	3,13212943	0,56634853485350688	5	-0,0827384144	0,00177387695
2	1	0	1	0	6989,89	3,18997383	3,19009113	0,60153519206990861	5	-0,0793493912	0,0019189521
2	1	0	0	0	6995,69	3,24798036	3,24796319	0,6395726369225088	5	-0,0757483095	0,00207730848
2	1	0	0	0	7001,49	3,3059845	3,30608511	0,67816681213055795	5	-0,0719246194	0,00224207714
2	1	0	1	0	7007,29	3,36398983	3,3640871	0,71709257829934093	5	-0,0678750351	0,00241236179
2	1	0	0	0	7013,09	3,42199564	3,42220902	0,75516486788789376	5	-0,0636028275	0,00258433213
2	1	0	0	0	7018,89	3,48000073	3,4802711	0,79404476067671936	5	-0,0591072962	0,00276349112
2	1	0	1	0	7024,69	3,53800607	3,53837347	0,83684733696281907	5	-0,0543762669	0,00296107843
2	1	0	0	0	7030,49	3,59601188	3,59631538	0,88675485954930445	5	-0,0493780859	0,00318905013
2	1	0	1	0	7036,29	3,65401793	3,65400815	0,94564871498171238	5	-0,0440636091	0,00345540815
2	1	0	1	0	7042,13	3,71242261	3,71271014	1,0156260381142275	5	-0,0383389331	0,0037707251
2	1	0	0	0	7047,93	3,77042794	3,77057195	1,0945532709980981	5	-0,0322213806	0,00412709173
2	1	0	1	0	7053,73	3,82843351	3,82866406	1,1877208886047179	5	-0,025605157	0,0045473841
2	1	0	1	0	7059,53	3,88643885	3,88663578	1,297853217460215	5	-0,0184013695	0,00504428288
2	1	0	0	0	7065,34	3,94444418	3,94462752	1,4286873651047501	5	-0,0105016818	0,00563563965
2	1	0	1	0	7071,14	4,00244999	4,00260925	1,5936463903635706	5	-0,00175439881	0,0063787438
2	1	0	0	0	7076,94	4,0604558	4,06049395	1,8143124026964691	5	0,00810295995	0,00736700464
2	1	0	0	0	7082,74	4,11846066	4,11873341	2,1068090864767549	5	0,0194415133	0,00867738482
2	1	0	1	0	7088,54	4,17646551	4,17673588	2,4833338210980115	5	0,0327131823	0,0103722299
2	0	0	1	1	7094,27	4,16616535	4,16623878	2,1478676126864896	5	0,0468020327	0,00894852914
2	0	0	0	1	7100,07	4,10815954	4,10832834	1,5012489277869462	5	0,0572980493	0,00616762368
2	0	0	1	1	7105,87	4,05015421	4,05033636	1,002102883843083	5	0,0644923151	0,00405885372
2	0	0	0	1	7111,67	3,99214864	3,99239469	0,61853288812562739	5	0,0691367686	0,00246942742
2	0	0	0	1	7117,51	3,93374372	3,93401217	0,32788258160720838	5	0,0718534738	0,00128989411
2	0	0	1	1	7123,31	3,87573791	3,87604976	0,11971442898114493	5	0,0731116012	0,000464019075
2	0	0	0	1	7129,23	3,81653214	3,81651425	-0,028167419368401226	5	0,0733516812	0,000107501357
2	0	0	1	1	7135,07	3,75812674	3,75832152	-0,13316592884560485	5	0,0728634745	0,000500480353
2	0	0	1	1	7140,87	3,7001214	3,70048022	-0,21596462535671978	5	0,0718398765	0,000799172849
2	0	0	0	1	7146,67	3,64211607	3,64230776	-0,28581211064010915	5	0,0703760609	0,00104101561
2	0	0	1	1	7152,47	3,58411074	3,58419561	-0,34619045412788941	5	0,0685348138	0,00124081434
2	0	0	0	1	7158,27	3,52610445	3,52619219	-0,39685754166611174	5	0,0663718507	0,00139939599
2	0	0	0	1	7164,08	3,46809983	3,46834207	-0,43737837594623373	5	0,0639451444	0,00151697779
2	0	0	1	1	7169,88	3,4100945	3,41016984	-0,46747177653014662	5	0,061313618	0,00159415812
2	0	0	0	1	7175,68	3,35208869	3,35226798	-0,4886943482172992	5	0,0585333034	0,00163823436
2	0	0	0	1	7181,48	3,29408336	3,2943964	-0,50227463633442906	5	0,0556532778	0,00165469176
2	0	0	1	1	7187,28	3,23607802	3,2361238	-0,50939666836832973	5	0,0527133048	0,00164847064
2	0	0	0	1	7193,08	3,17807269	3,17820215	-0,51292466636126163	5	0,0497433282	0,0016301783
2	0	0	0	1	7198,88	3,12006783	3,12033129	-0,51348648632593094	5	0,0467622392	0,00160224794
2	0	0	1	1	7200,45	3,10436654	3,10464287	-0,51360978592525971	5	0,0459551103	0,00159457501