File: Experimentelles/Rohdaten/Batterietests/AlteZelle/Studenten_Batterietests/Sonstige/ECLab-Export/LiCoO2 vs Li_05_GCPL_C01_loop9.mpt
EC-Lab ASCII FILE
Nb header lines : 3
mode	ox/red	error	control changes	Ns changes	counter inc.	Ns	time/s	control/V/mA	Ewe/V	dq/mA.h	<I>/mA	P/W	(Q-Qo)/mA.h	x	Capacity/mA.h
1	0	0	1	1	0	1	289704,66	-0,100000001	4,19612217	0	0	0	0	0	0
1	0	0	1	0	0	1	290074,67	-0,100000001	3,82344675	-0,00027771934354884758	-0,099977038628907648	0,000382256898	-0,010274221339117067	0,00038334501199996525	0,010274221339117067
1	0	0	1	0	0	1	290444,68	-0,100000001	3,77807736	-0,00027771912264327213	-0,099976959104431718	0,000377720688	-0,020549841711136362	0,00076674222379853222	0,020549841711136362
1	0	0	1	0	0	1	290814,68	-0,100000001	3,7419498	-0,00027771816213594544	-0,099976613326124288	0,000374107476	-0,030825440454009248	0,0011501386285845662	0,030825440454009248
1	0	0	1	0	0	1	291184,69	-0,100000001	3,70937371	-0,00027771852753601139	-0,099976744867615206	0,000370851107	-0,041101038448052019	0,0015335350054307418	0,041101038448052019
1	0	0	1	0	0	1	291554,70	-0,100000001	3,67866921	-0,00027771940269114243	-0,099977059919723827	0,000367782544	-0,051376653736132026	0,0019169320275406986	0,051376653736132026
1	0	0	1	0	0	1	291924,71	-0,100000001	3,64832735	-0,00027771950562877789	-0,099977096976559091	0,000364749169	-0,061652266883050944	0,0023003289697610566	0,061652266883050944
1	0	0	1	0	0	1	292294,71	-0,100000001	3,61769915	-0,0002777188573338919	-0,099976863590238426	0,000361686223	-0,071927875125528384	0,0026837257289901085	0,071927875125528384
1	0	0	1	0	0	1	292664,72	-0,100000001	3,586097	-0,00027771966034173968	-0,099977152669243264	0,000358527759	-0,082203486173513626	0,0030671225928964288	0,082203486173513626
1	0	0	1	0	0	1	293034,73	-0,100000001	3,55350208	-0,00027771927029929229	-0,099977012259575475	0,000355268508	-0,092479107560131482	0,003450519842551033	0,092479107560131482
1	0	0	1	0	0	1	293404,73	-0,100000001	3,51905489	-0,00027771796487727098	-0,099976542316696512	0,000351822935	-0,10275470603738166	0,0038339162374263258	0,10275470603738166
1	0	0	1	0	0	1	293774,74	-0,100000001	3,48248816	-0,00027771938266977667	-0,099977052712170957	0,000348168891	-0,11303031092128547	0,0042173128713424806	0,11303031092128547
1	0	0	1	0	0	1	294144,75	-0,100000001	3,4428854	-0,00027771949357291062	-0,099977092633038848	0,000344209664	-0,12330594007475861	0,0046007104107888966	0,12330594007475861
1	0	0	1	0	0	1	294514,76	-0,100000001	3,39957809	-0,00027771872100689344	-0,099976814513463949	0,000339878985	-0,13358155272728597	0,0049841073345628416	0,13358155272728597
1	0	0	1	0	0	1	294884,76	-0,100000001	3,35206985	-0,00027771797367019782	-0,099976545482089229	0,000335128367	-0,14385714019392202	0,0053675033186173178	0,14385714019392202
1	0	0	1	0	0	1	295254,77	-0,100000001	3,29942536	-0,00027771903181779715	-0,099976926407890304	0,000329866394	-0,1541327431562632	0,0057508998808373862	0,1541327431562632
1	0	0	1	0	0	1	295624,78	-0,100000001	3,24130034	-0,00027771860625180931	-0,099976773202429107	0,000324054738	-0,16440834267154726	0,0061342963144431206	0,16440834267154726
1	0	0	1	0	0	1	295994,78	-0,100000001	3,17637777	-0,00027771794978901744	-0,099976536882702106	0,000317563245	-0,17468393541113632	0,0065176924952385626	0,17468393541113632
1	0	0	1	0	0	1	296364,79	-0,100000001	3,10320592	-0,00027771928262255258	-0,09997701669586377	0,000310249277	-0,18495952734283082	0,0069010886458903731	0,18495952734283082
1	0	0	1	0	0	1	296734,80	-0,100000001	3,02031493	-0,00027771937845067846	-0,099977051193324838	0,000301962194	-0,19523513019552006	0,0072844852040191808	0,19523513019552006
1	0	0	1	0	0	1	297104,81	-0,100000001	2,92608166	-0,00027771944216680192	-0,099977074126032166	0,000292541081	-0,20551074434641418	0,0076678821836992038	0,20551074434641418
1	0	0	1	0	0	1	297474,81	-0,100000001	2,82048678	-0,00027771886201658186	-0,099976865277138214	0,000281983434	-0,21578634377854061	0,0080512786142022131	0,21578634377854061
1	0	0	1	0	0	1	297844,82	-0,100000001	2,70755959	-0,00027771918387918013	-0,099976981144278682	0,000270693621	-0,22606195059673978	0,0084346753202895283	0,22606195059673978
1	0	0	1	0	0	1	298214,83	-0,100000001	2,59163427	-0,00027771921034943725	-0,099976990678043226	0,000259103806	-0,23633756329214733	0,0088180722456633907	0,23633756329214733
1	0	0	1	0	0	1	298584,83	-0,100000001	2,47559452	-0,00027771946582570672	-0,09997708264772937	0,000247502729	-0,24661317446896595	0,0092014691143766579	0,24661317446896595
1	0	0	1	0	0	1	298954,84	-0,100000001	2,3574543	-0,00027771897164152726	-0,099976904742522534	0,000235690983	-0,25688875641891053	0,0095848648925959578	0,25688875641891053
1	0	0	1	0	0	1	299324,85	-0,100000001	2,21983743	-0,00027771960056200627	-0,099977131147207795	0,000221932976	-0,26716436205403565	0,0099682615545411904	0,26716436205403565
1	0	0	1	0	0	1	299694,86	-0,100000001	2,0077312	-0,00027771865699481635	-0,099976791474215347	0,000200726528	-0,27743998095811555	0,010351658711568965	0,27743998095811555
1	0	0	1	0	0	1	300064,86	-0,100000001	1,74106979	-0,00027771869902519715	-0,099976806604861094	0,000174066605	-0,28771556013923709	0,010735054386479755	0,28771556013923709
1	0	0	1	0	0	1	300434,87	-0,100000001	1,53165591	-0,0002777188932630751	-0,099976876524495334	0,000153130168	-0,29799114944375373	0,011118450439108026	0,29799114944375373
1	1	0	0	0	0	2	300790,72	0,100000001	2,82432389	0,00027783122671892246	0,10001731578994416	0,000282481284	-0,29287384146758982	0,010927516798223602	0,0075014464100210202
1	1	0	0	0	0	2	301160,73	0,100000001	3,03801489	0,00027783193530390662	0,10001757088028413	0,000303854875	-0,2825940775513217	0,010543964985218058	0,017781210326289133
1	1	0	0	0	0	2	301530,74	0,100000001	3,18838739	0,00027783035976853632	0,10001700369847187	0,00031889294	-0,27231430728990547	0,010160412935466504	0,028060980587705546
1	1	0	0	0	0	2	301900,75	0,100000001	3,35376835	0,00027783161575140227	0,10001745583894026	0,000335435383	-0,26203455240741296	0,009776861459523273	0,038340735470198074
1	1	0	0	0	0	2	302270,75	0,100000001	3,4731307	0,0002778310401249263	0,10001724861972762	0,000347372988	-0,2517547944065353	0,0093933098672288986	0,048620493471075635
1	1	0	0	0	0	2	302640,76	0,100000001	3,54786801	0,00027783246658825213	0,10001776213896586	0,000354849821	-0,2414750233465681	0,009009757787682336	0,05890026453104279
1	1	0	0	0	0	2	303010,77	0,100000001	3,59917617	0,00027783190604878794	0,10001756034864419	0,000359980826	-0,23119523946786134	0,0086262052298513651	0,069180048409749632
1	1	0	0	0	0	2	303380,77	0,100000001	3,63791966	0,00027783163263648749	0,10001746191745389	0,000363855477	-0,22091546559782947	0,0082426530454575117	0,079459822279781504
1	1	0	0	0	0	2	303750,78	0,100000001	3,66896796	0,00027783246791652506	0,10001776261364189	0,000366961962	-0,21063569469611686	0,0078591009718156403	0,089739593181494195
1	1	0	0	0	0	2	304120,79	0,100000001	3,69577718	0,0002778319650068879	0,10001758156849416	0,000369642687	-0,20035590923372166	0,0074755483548951245	0,10001937864388938
1	1	0	0	0	0	2	304490,80	0,100000001	3,71958852	0,00027783147631088893	0,10001740564597934	0,000372023584	-0,19007613212304816	0,0070919960495885747	0,11029915575456283
1	1	0	0	0	0	2	304860,80	0,100000001	3,74185324	0,00027783130817653402	0,10001734511877702	0,00037425023	-0,17979636007402227	0,006708443933138903	0,12057892780358877
1	1	0	0	0	0	2	305230,81	0,100000001	3,76285768	0,00027783198380470278	0,10001758833790589	0,000376351963	-0,16951658825144387	0,0063248918251382899	0,13085869962616714
1	1	0	0	0	0	2	305600,82	0,100000001	3,78317451	0,00027783107202168963	0,10001726010001264	0,000378382741	-0,15923682396097654	0,0059413399981708698	0,14113846391663445
1	1	0	0	0	0	2	305970,82	0,100000001	3,80326247	0,00027783100247424512	0,10001723506807203	0,000380391808	-0,14895706810177258	0,0055577884857852205	0,15141821977583843
1	1	0	0	0	0	2	306340,83	0,100000001	3,82314038	0,0002778310525119305	0,10001725308129192	0,000382380007	-0,13867731683821835	0,0051742371448694426	0,16169797103939264
1	1	0	0	0	0	2	306710,84	0,100000001	3,84351444	0,00027783099601128029	0,10001723273679218	0,000384417683	-0,12839757061859869	0,0047906859921496448	0,17197771725901232
1	1	0	0	0	0	2	307080,85	0,100000001	3,86400342	0,00027783176251831984	0,10001750867983491	0,000386467989	-0,1181178135402731	0,0044071344342769293	0,18225747433733792
1	1	0	0	0	0	2	307450,85	0,100000001	3,88556147	0,00027783167518220016	0,10001747723827286	0,000388624059	-0,10783805702252797	0,0040235828973202246	0,19253723085508301
1	1	0	0	0	0	2	307820,86	0,100000001	3,90795994	0,00027783143060488835	0,10001738919213595	0,000390863948	-0,097558291241084838	0,0036400310147224909	0,20281699663652618
1	1	0	0	0	0	2	308190,87	0,100000001	3,9316566	0,00027783198372978304	0,10001758831326397	0,000393234805	-0,087278515269939558	0,0032564787519332717	0,21309677260767136
1	1	0	0	0	0	2	308560,87	0,100000001	3,95659447	0,00027783169796483379	0,10001748543637008	0,000395728624	-0,076998736844470362	0,0028729263975699261	0,22337655103314042
1	1	0	0	0	0	2	308930,88	0,100000001	3,98346114	0,00027783232200311293	0,10001771008466059	0,000398416654	-0,066718963114401408	0,0024893742183982768	0,23365632476320938
1	1	0	0	0	0	2	309300,89	0,100000001	4,01210356	0,0002778315170386599	0,10001742030769458	0,000401280238	-0,056439195745961408	0,0021058222765875574	0,24393609213164941
1	1	0	0	0	0	2	309670,90	0,100000001	4,04257917	0,00027783054417371754	0,10001707008305886	0,000404326915	-0,046159434745190336	0,0017222705723631267	0,25421585313242061
1	1	0	0	0	0	2	310040,90	0,100000001	4,07502127	0,00027783095991528698	0,10001721974248477	0,000407572312	-0,035879682729603827	0,0013387192033880131	0,26449560514800714
1	1	0	0	0	0	2	310410,91	0,100000001	4,10874271	0,00027783180971609216	0,1000175256672128	0,00041094629	-0,025599910128664128	0,00095516706634569446	0,27477537774894688
1	1	0	0	0	0	2	310780,92	0,100000001	4,14286566	0,00027783127183218797	0,10001733203506437	0,000414358365	-0,015320138953936502	0,00057161498251726592	0,28505514892367456
1	1	0	0	0	0	2	311150,92	0,100000001	4,17593765	0,00027783164677396416	0,10001746701150483	0,000417666713	-0,0050403644101213133	0,00018806277298365069	0,29533492346748979
1	1	0	0	0	0	2	311450,96	0,100000001	4,19992208	8,7792661372158272E-007	0,10001703009469451	0,000420063734	0,0032954453912316218	-0,00012295749832030379	0,30367073326884275