File: Experimentelles/Rohdaten/Batterietests/AlteZelle/Studenten_Batterietests/Sonstige/ECLab-Export/LiCoO2 vs Li_02_CV_C01_loop7.mpt
EC-Lab ASCII FILE
Nb header lines : 3
mode	ox/red	error	control changes	counter inc.	time/s	control/V	Ewe/V	<I>/mA	cycle number	(Q-Qo)/C	P/W
2	0	0	1	0	8480,84	3,10466647	3,10504365	-0,80122458934783936	8	0	0,00248783734
2	0	0	0	0	8486,62	3,04686069	3,04719162	-0,66482567166288614	8	-0,0039309836	0,00202585128
2	0	0	1	0	8492,42	2,98885512	2,98913956	-0,6472462858073431	8	-0,00773808407	0,00193470949
2	0	0	1	0	8498,22	2,93084979	2,9312079	-0,63329108478501619	8	-0,0114533417	0,00185630785
2	0	0	0	0	8504,02	2,87284422	2,87315583	-0,62249372946098445	8	-0,0150960386	0,00178852153
2	0	0	1	0	8509,82	2,81483912	2,81483293	-0,61468587691585344	8	-0,0186849367	0,00173023809
2	0	0	0	0	8515,62	2,75683355	2,75707173	-0,60802679524446426	8	-0,0222327318	0,00167637353
2	0	0	0	0	8521,42	2,69882822	2,69898963	-0,60347110033035315	8	-0,0257487744	0,00162876223
2	0	0	1	0	8527,22	2,64082289	2,64098763	-0,59971954285477837	8	-0,0292413104	0,00158385187
2	0	0	0	0	8533,02	2,58281732	2,58299589	-0,59551646622518822	8	-0,0327114835	0,0015382166
2	0	0	0	0	8538,82	2,52481198	2,52503395	-0,58991954801604147	8	-0,0361543223	0,00148956687
2	0	0	1	0	8544,62	2,46680641	2,46719241	-0,58086096774786624	8	-0,0395552106	0,00143309578
2	0	0	0	0	8550,42	2,40880108	2,40907001	-0,56686425193523379	8	-0,0428898893	0,00136561564
2	0	0	0	0	8556,22	2,35079622	2,35074687	-0,54609950366743123	8	-0,0461234339	0,00128374167
2	0	0	1	0	8562,03	2,29279041	2,29314637	-0,51957474229857325	8	-0,0492195189	0,00119146099
2	0	0	0	0	8567,83	2,23478484	2,234864	-0,49076924038429984	8	-0,052153185	0,00109680253
2	0	0	1	0	8573,63	2,17677927	2,17682171	-0,46363916682700282	8	-0,0549221709	0,00100925984
2	0	0	1	0	8579,43	2,11877394	2,11881995	-0,44085622361550803	8	-0,0575454943	0,000934094947
2	0	0	0	0	8585,23	2,0607686	2,06108856	-0,42450224499528666	8	-0,0600556955	0,000874936697
2	0	0	1	0	8591,03	2,00276303	2,00313687	-0,41446168053274234	8	-0,0624890737	0,000830223493
2	0	0	0	0	8596,83	1,9447577	1,94514501	-0,4099247058232631	8	-0,0648796186	0,000797362998
2	0	0	0	0	8602,63	1,88675237	1,8869524	-0,40955383346105555	8	-0,0672571361	0,000772808562
2	0	0	1	0	8608,43	1,82874703	1,82882023	-0,41255127778276845	8	-0,0696429089	0,000754482113
2	0	0	0	0	8614,23	1,77074158	1,77109909	-0,4194644894450912	8	-0,0720574036	0,000742913166
2	0	0	0	0	8620,03	1,71273601	1,71303689	-0,42923887167126118	8	-0,0745213255	0,000735302048
2	0	0	1	0	8625,83	1,65473068	1,65534568	-0,44156676111743034	8	-0,0770511925	0,000730945612
2	0	0	0	0	8631,63	1,59672534	1,59718335	-0,45370851022501843	8	-0,0796509087	0,000724655692
2	0	0	0	0	8637,43	1,53871989	1,53900111	-0,46996621803070138	8	-0,0823314488	0,000723278557
2	0	0	1	0	8643,23	1,48071456	1,4810493	-0,49036245498185235	8	-0,0851171762	0,00072625099
2	0	0	0	0	8649,03	1,42270911	1,42293704	-0,5179898889424912	8	-0,0880409926	0,000737067021
2	0	0	1	0	8654,83	1,36470366	1,36481476	-0,55572330113500358	8	-0,0911531895	0,000758459384
2	0	0	1	0	8660,63	1,30669832	1,30701339	-0,61134792414183002	8	-0,0945312753	0,000799039903
2	0	0	0	0	8666,44	1,24869299	1,24883103	-0,69143820057312704	8	-0,0983001068	0,000863489462
2	0	0	1	0	8672,24	1,19068742	1,19089925	-0,79690061012903962	8	-0,102609873	0,000949028356
2	0	0	1	0	8678,04	1,13268209	1,13309789	-0,92179124212513126	8	-0,107590988	0,00104447966
2	0	0	0	0	8683,88	1,07427657	1,07458472	-1,064779748519265	8	-0,113386437	0,00114419602
2	0	0	1	0	8689,68	1,01627123	1,01648235	-1,2360650130237154	8	-0,120043024	0,00125643832
2	1	0	0	0	8695,44	1,04127347	1,04140341	-0,85966649806748314	8	-0,12635757	0,000895259611
2	1	0	1	0	8701,24	1,09927893	1,0995357	-0,54993349950139782	8	-0,130360335	0,000604671543
2	1	0	0	0	8707,07	1,15758443	1,15804887	-0,36547860107384531	8	-0,132980764	0,000423242076
2	1	0	0	0	8712,87	1,21558988	1,21584034	-0,24864633784939994	8	-0,134734228	0,000302314234
2	1	0	1	0	8718,67	1,27359521	1,27387226	-0,16855882538948253	8	-0,135926843	0,000214722415
2	1	0	0	0	8724,47	1,33160055	1,33176398	-0,11014992215981078	8	-0,136723116	0,000146693696
2	1	0	1	0	8730,27	1,389606	1,3899864	-0,065033999213483187	8	-0,137222201	9,03963737E-005
2	1	0	1	0	8736,11	1,4480114	1,44836938	-0,02845552668441087	8	-0,137488738	4,12141126E-005
2	1	0	0	0	8741,95	1,50641692	1,50664186	0,002896492182117072	8	-0,137559518	4,36397659E-006
2	1	0	1	0	8747,79	1,56482232	1,56512499	0,030337534039669325	8	-0,137459993	4,74820336E-005
2	1	0	1	0	8753,59	1,62282789	1,62303686	0,056435135445402016	8	-0,137205809	9,15963028E-005
2	1	0	0	0	8759,39	1,6808331	1,68086803	0,082185409769105331	8	-0,136801109	0,00013814283
2	1	0	1	0	8765,23	1,73923874	1,7393713	0,10852573552013678	8	-0,136240005	0,000188766557
2	1	0	0	0	8771,04	1,79724395	1,79767394	0,1359503758916012	8	-0,135527208	0,00024439444
2	1	0	0	0	8776,84	1,8552494	1,85525501	0,16281403608930602	8	-0,134656101	0,000302061555
2	1	0	1	0	8782,64	1,91325486	1,91362774	0,18951669296560224	8	-0,133628994	0,000362664403
2	1	0	0	0	8788,44	1,97126019	1,9717499	0,21312220285957018	8	-0,132456765	0,000420223689
2	1	0	1	0	8794,24	2,0292666	2,02950335	0,23325407843929914	8	-0,131157339	0,000473389926
2	1	0	1	0	8800,04	2,08727098	2,08758354	0,24956634594127504	8	-0,129751787	0,000520990579
2	1	0	0	0	8805,84	2,14527655	2,14564538	0,26310384320095203	8	-0,128260344	0,000564527523
2	1	0	1	0	8811,64	2,20328188	2,20343685	0,27345312153920442	8	-0,126699761	0,00060253666
2	1	0	1	0	8817,44	2,26128745	2,26158905	0,2819198408008865	8	-0,125085041	0,000637586811
2	1	0	0	0	8823,24	2,31929255	2,31940055	0,28835768229328096	8	-0,123426877	0,000668816967
2	1	0	1	0	8829,04	2,37729812	2,37740278	0,29403290858802714	8	-0,121734567	0,000699034659
2	1	0	1	0	8834,84	2,43530345	2,43558502	0,29878062227119949	8	-0,120013021	0,000727705599
2	1	0	0	0	8840,64	2,49330902	2,49361706	0,30308895185589792	8	-0,118264824	0,000755787769
2	1	0	1	0	8846,44	2,55131459	2,55161881	0,30716707510873587	8	-0,116492674	0,000783773314
2	1	0	0	0	8852,24	2,60931969	2,60960102	0,31208847059557779	8	-0,114693582	0,000814426399
2	1	0	0	0	8858,04	2,66732526	2,66733217	0,31935990011940531	8	-0,112861037	0,000851838908
2	1	0	1	0	8863,84	2,72533059	2,72545433	0,3294892571866512	8	-0,110977948	0,000898007944
2	1	0	0	0	8869,64	2,78333592	2,78361678	0,3433751070406288	8	-0,109024979	0,000955824682
2	1	0	0	0	8875,45	2,8413415	2,84147835	0,36577751177052685	8	-0,106971152	0,00103934889
2	1	0	1	0	8881,25	2,89934683	2,89951038	0,39656430979569766	8	-0,10475383	0,00114984228
2	1	0	0	0	8887,05	2,9573524	2,95750213	0,41938665990407251	8	-0,102386028	0,00124033692
2	1	0	1	0	8892,85	3,01535773	3,01547408	0,44767004370689446	8	-0,0998708755	0,0013499374
2	1	0	1	0	8898,65	3,07336307	3,07358623	0,48126655273760518	8	-0,097176753	0,00147921429
2	1	0	0	0	8904,45	3,13136816	3,13181877	0,52117680696149549	8	-0,0942695737	0,00163223129
2	1	0	1	0	8910,25	3,18937373	3,18950963	0,56649299074585357	8	-0,0911147222	0,00180683483
2	1	0	1	0	8916,05	3,24737787	3,2475512	0,61571369793509056	8	-0,0876837447	0,00199956167
2	1	0	0	0	8921,85	3,3053844	3,30525279	0,66439760072777677	8	-0,0839675143	0,00219600205
2	1	0	1	0	8927,65	3,36339021	3,36363554	0,70898060997326963	8	-0,0799793452	0,00238475227
2	1	0	0	0	8933,45	3,42139554	3,42166781	0,74846963987996237	8	-0,0757479668	0,00256101438
2	1	0	0	0	8939,25	3,47940087	3,47953939	0,78661973526080512	8	-0,0712938756	0,00273707439
2	1	0	1	0	8945,05	3,53740621	3,53754187	0,82970813599725798	8	-0,066607058	0,00293512736
2	1	0	0	0	8950,85	3,59541178	3,59554362	0,88315214309841395	8	-0,0616418011	0,00317541207
2	1	0	0	0	8956,65	3,65341806	3,65353584	0,9489713382926039	8	-0,0563289411	0,00346710091
2	1	0	1	0	8962,49	3,71182251	3,7118783	1,0305258315056598	8	-0,0505523458	0,00382518652
2	1	0	0	0	8968,29	3,76982784	3,7700603	1,1254382239033749	8	-0,0443037339	0,00424297014
2	1	0	1	0	8974,09	3,82783318	3,82791185	1,2351873380442448	8	-0,0374612175	0,00472818827
2	1	0	1	0	8979,89	3,88583899	3,88615465	1,3612624481320443	8	-0,0299346764	0,0052900766
2	1	0	0	0	8985,70	3,94384408	3,94396591	1,5067372020954829	8	-0,0216235612	0,00594252022
2	1	0	1	0	8991,50	4,00184965	4,00212812	1,689166252811752	8	-0,0123738246	0,00676025962
2	1	0	1	0	8997,30	4,05985403	4,06001902	1,9281533906434349	8	-0,00190940755	0,007828339
2	1	0	0	0	9003,10	4,11786032	4,11818218	2,2398651080826931	8	0,0101449937	0,00922417268
2	1	0	1	0	9008,90	4,17586565	4,17607403	2,6437194993098458	8	0,0242650565	0,0110403681
2	0	0	0	1	9014,64	4,16666508	4,166852	2,2696116864518531	8	0,0392946377	0,00945713557
2	0	0	0	1	9020,44	4,10865974	4,10890961	1,541120076241592	8	0,0502450243	0,00633232296
2	0	0	1	1	9026,24	4,05065441	4,05072737	0,98337356808285043	8	0,0574912801	0,00398337841
2	0	0	0	1	9032,04	3,9926486	3,99278545	0,55673547539239187	8	0,0618975759	0,00222292519
2	0	0	0	1	9037,88	3,9342432	3,93454313	0,23083244535761539	8	0,0641466901	0,000908220187
2	0	0	1	1	9043,72	3,87583804	3,87571931	-0,013345228173420765	8	0,064742215	5,17223598E-005
2	0	0	0	1	9049,56	3,81743217	3,81749678	-0,1995615855169799	8	0,0640933067	0,000761825708
2	0	0	1	1	9055,36	3,75942683	3,75960493	-0,34629274136386899	8	0,0624923408	0,00130192388
2	0	0	1	1	9061,16	3,7014215	3,70165277	-0,46922589140012947	8	0,0601142794	0,00173691136
2	0	0	0	1	9066,96	3,64341617	3,64341044	-0,57605767296627117	8	0,0570713952	0,00209881458
2	0	0	1	1	9072,76	3,58541083	3,58555865	-0,66885759681463424	8	0,0534494407	0,00239822804
2	0	0	1	1	9078,56	3,52740526	3,52758718	-0,7435198932265248	8	0,049340494	0,00262283115
2	0	0	0	1	9084,37	3,46939993	3,46943474	-0,79674014418075597	8	0,0448587537	0,00276423804
2	0	0	1	1	9090,17	3,4113946	3,41173363	-0,82656637330849843	8	0,0401356518	0,00282002427
2	0	0	1	1	9095,97	3,35338974	3,35351253	-0,83517473504100787	8	0,0353030376	0,00280076894
2	0	0	0	1	9101,77	3,29538345	3,29571962	-0,82615257147699776	8	0,0304754209	0,00272276718
2	0	0	1	1	9107,57	3,23737812	3,23763728	-0,80498695994417075	8	0,0257380027	0,0026062557
2	0	0	0	1	9113,37	3,17937279	3,17955565	-0,77762306481599808	8	0,0211435817	0,00247249589
2	0	0	0	1	9119,17	3,12136745	3,12161398	-0,74817867670208218	8	0,0167152751	0,00233552512
2	0	0	0	1	9120,77	3,10526657	3,10568523	-0,74150807016036096	8	0,0155211259	0,00230289064