File: Experimentelles/Rohdaten/Batterietests/AlteZelle/Studenten_Batterietests/Sonstige/ECLab-Export/LiCoO2 vs Li_05_GCPL_C01_loop5.mpt
EC-Lab ASCII FILE
Nb header lines : 3
mode	ox/red	error	control changes	Ns changes	counter inc.	Ns	time/s	control/V/mA	Ewe/V	dq/mA.h	<I>/mA	P/W	(Q-Qo)/mA.h	x	Capacity/mA.h
1	0	0	1	1	0	1	196404,14	-0,100000001	4,19583559	0	0	0	0	0	0
1	0	0	1	0	0	1	196834,14	-0,100000001	3,81368923	-0,00027771880513760778	-0,099978754206643699	0,000381287886	-0,011940549339534694	0,00044551795009737126	0,011940549339534694
1	0	0	1	0	0	1	197264,14	-0,100000001	3,76889253	-0,00027771909714076256	-0,099978859327762982	0,000376809563	-0,023882460182218288	0,00089108669970778842	0,023882460182218288
1	0	0	1	0	0	1	197694,14	-0,100000001	3,73371983	-0,00027771919943185315	-0,099978896152549837	0,00037329318	-0,03582437470741881	0,0013366555867178634	0,03582437470741881
1	0	0	1	0	0	1	198124,14	-0,100000001	3,70232773	-0,00027771770151000886	-0,099978356900770266	0,000370152644	-0,047766260647536774	0,0017822234071800749	0,047766260647536774
1	0	0	1	0	0	1	198554,14	-0,100000001	3,6731317	-0,00027771771270657581	-0,099978360931533722	0,000367233675	-0,059708142362802586	0,0022277910700073725	0,059708142362802586
1	0	0	1	0	0	1	198984,14	-0,100000001	3,64447021	-0,00027771905963247018	-0,099978845824779853	0,000364369916	-0,071650025327538227	0,0026733587794540691	0,071650025327538227
1	0	0	1	0	0	1	199414,14	-0,100000001	3,61569428	-0,00027771814091338051	-0,099978515085959309	0,000361491751	-0,083591909503128589	0,0031189265340793837	0,083591909503128589
1	0	0	1	0	0	1	199844,14	-0,100000001	3,58638358	-0,00027771806785133152	-0,099978488783625792	0,000358561199	-0,09553380012301047	0,003564494529149879	0,09553380012301047
1	0	0	1	0	0	1	200274,14	-0,100000001	3,55565977	-0,00027771951393534739	-0,099979009373790054	0,000355491327	-0,10747571783454117	0,004010063535046217	0,10747571783454117
1	0	0	1	0	0	1	200704,14	-0,100000001	3,52241564	-0,00027771857410669328	-0,099978671035527501	0,000352166448	-0,11941762998387277	0,0044556323334094278	0,11941762998387277
1	0	0	1	0	0	1	201134,14	-0,100000001	3,48695636	-0,00027771910922684605	-0,099978863678752358	0,000348621921	-0,13135954402685854	0,0049012012024274221	0,13135954402685854
1	0	0	1	0	0	1	201564,14	-0,100000001	3,44834638	-0,00027771783488078253	-0,099978404914241267	0,000344760163	-0,14330146200272557	0,0053467702181865037	0,14330146200272557
1	0	0	1	0	0	1	201994,14	-0,100000001	3,40591764	-0,00027771763798760045	-0,099978334032706816	0,00034051796	-0,15524332753806051	0,0057923372773188262	0,15524332753806051
1	0	0	1	0	0	1	202424,14	-0,100000001	3,35974598	-0,00027771769618656896	-0,099978354983168307	0,000335901888	-0,16718518181187939	0,0062379039162688435	0,16718518181187939
1	0	0	1	0	0	1	202854,14	-0,100000001	3,30920196	-0,00027771813135966656	-0,099978511646622835	0,000330849085	-0,17912704550493488	0,0066834709066632435	0,17912704550493488
1	0	0	1	0	0	1	203284,14	-0,100000001	3,2537694	-0,00027771821461121242	-0,099978541617174643	0,000325307134	-0,19106889775204598	0,0071290374699940685	0,19106889775204598
1	0	0	1	0	0	1	203714,14	-0,100000001	3,19325757	-0,00027771939771746595	-0,09997896753535927	0,000319258601	-0,2030107961273441	0,0075746057544295706	0,2030107961273441
1	0	0	1	0	0	1	204144,14	-0,100000001	3,12661624	-0,00027771970412880182	-0,099979077843422925	0,00031259621	-0,21495272256842083	0,0080201750860370086	0,21495272256842083
1	0	0	1	0	0	1	204574,14	-0,100000001	3,05168796	-0,00027771843628378378	-0,099978621419287846	0,000305103546	-0,22689463795028861	0,0084657440050104896	0,22689463795028861
1	0	0	1	0	0	1	205004,14	-0,100000001	2,96579909	-0,00027771885895273754	-0,099978773580087386	0,000296516955	-0,23883654050739507	0,0089113124454748838	0,23883654050739507
1	0	0	1	0	0	1	205434,14	-0,100000001	2,86738396	-0,00027771847091780768	-0,09997863388753449	0,000286677125	-0,25077845259522509	0,0093568812415433882	0,25077845259522509
1	0	0	1	0	0	1	205864,14	-0,100000001	2,75693893	-0,00027771834924941264	-0,099978590086919142	0,000275634869	-0,26272034917426646	0,0098024494589581363	0,26272034917426646
1	0	0	1	0	0	1	206294,14	-0,100000001	2,63824511	-0,00027771767746864093	-0,099978348245879168	0,000263767375	-0,2746622178662887	0,010248016635870706	0,2746622178662887
1	0	0	1	0	0	1	206724,14	-0,100000001	2,51666784	-0,00027771858607687882	-0,099978675344793613	0,000251613121	-0,2866041024314439	0,01069358440503121	0,2866041024314439
1	0	0	1	0	0	1	207154,14	-0,100000001	2,39522409	-0,00027771849980950355	-0,099978644288543386	0,000239471265	-0,29854600372321536	0,011139152798284253	0,29854600372321536
1	0	0	1	0	0	1	207584,14	-0,100000001	2,25848556	-0,0002777186204815904	-0,099978687730487859	0,000225800424	-0,3104879084970567	0,011584721321458006	0,3104879084970567
1	0	0	1	0	0	1	208014,14	-0,100000001	2,03851223	-0,00027771950247014563	-0,099979005246318054	0,00020380842	-0,32242983506935853	0,012030290657961629	0,32242983506935853
1	0	0	1	0	0	1	208444,14	-0,100000001	1,74431586	-0,00027771905333383219	-0,099978843557270515	0,000174394678	-0,33437175104403117	0,012475859599053458	0,33437175104403117
1	0	0	1	0	0	1	208874,14	-0,100000001	1,52797055	-0,00027771872873604294	-0,099978726702084685	0,000152764551	-0,34631364068533395	0,01292142755761185	0,34631364068533395
1	1	0	0	0	0	2	209284,80	0,100000001	2,8132298	0,00027782340859249232	0,10001641144451021	0,000281369139	-0,33994110705170074	0,012683659759778398	0,0088903584601220979
1	1	0	0	0	0	2	209714,80	0,100000001	3,06132984	0,00027782380839437245	0,10001655537316453	0,000306183676	-0,32799470427879642	0,012237923410211981	0,020836761233026362
1	1	0	0	0	0	2	210144,80	0,100000001	3,2442019	0,00027782421116986205	0,10001670037231811	0,000324474357	-0,31604825857323405	0,011792185458770371	0,032783206938588781
1	1	0	0	0	0	2	210574,80	0,100000001	3,41067123	0,00027782435856676768	0,10001675343519582	0,000341124251	-0,30410181228316896	0,011346447485520176	0,044729653228653798
1	1	0	0	0	0	2	211004,80	0,100000001	3,51584601	0,00027782379649000038	0,10001655108759126	0,000351642782	-0,2921553672337337	0,010900709558559549	0,056676098278089114
1	1	0	0	0	0	2	211434,80	0,100000001	3,58357549	0,00027782330287827392	0,10001637338739752	0,000358416233	-0,28020894037570144	0,010454972310344624	0,068622525136121421
1	1	0	0	0	0	2	211864,80	0,100000001	3,63169479	0,00027782353938453728	0,10001645852963902	0,00036322925	-0,26826253512051328	0,010009235868160861	0,080568930391309594
1	1	0	0	0	0	2	212294,80	0,100000001	3,66936898	0,00027782340803701018	0,10001641124453667	0,000366997119	-0,25631613084961286	0,0095634994627021952	0,092515334662210202
1	1	0	0	0	0	2	212724,80	0,100000001	3,70079923	0,00027782387833297254	0,10001658055105662	0,000370141293	-0,24436970596686352	0,0091177622881877338	0,10446175954495952
1	1	0	0	0	0	2	213154,80	0,100000001	3,72835326	0,00027782400156888698	0,1000166249159789	0,00037289731	-0,23242327251459827	0,0086720247939331123	0,11640819299722461
1	1	0	0	0	0	2	213584,80	0,100000001	3,7537303	0,00027782464198230048	0,10001685546477168	0,000375436299	-0,22047682292196656	0,0082262866974597184	0,12835464258985632
1	1	0	0	0	0	2	214014,80	0,100000001	3,77735066	0,00027782528954578771	0,10001708858759061	0,000377799617	-0,20853035830112186	0,007780548040263488	0,14030110721070106
1	1	0	0	0	0	2	214444,80	0,100000001	3,8000164	0,00027782366602081392	0,10001650411869149	0,000380064361	-0,1965839144217993	0,0073348101569613389	0,15224755109002362
1	1	0	0	0	0	2	214874,80	0,100000001	3,82186079	0,00027782351900802717	0,10001645119409654	0,000382248953	-0,18463749859256131	0,006889073320245559	0,16419396691926157
1	1	0	0	0	0	2	215304,80	0,100000001	3,84349537	0,00027782369560789734	0,10001651477003984	0,000384412997	-0,17269106366279837	0,006443335770863511	0,17614040184902451
1	1	0	0	0	0	2	215734,80	0,100000001	3,86522555	0,000277823078698996	0,10001629268287013	0,00038658554	-0,1607446533162593	0,0059975991387145984	0,18808681219556362
1	1	0	0	0	0	2	216164,80	0,100000001	3,88760471	0,0002778239366213481	0,10001660153486853	0,000388825021	-0,14879824416705754	0,0055518625512399514	0,20003322134476534
1	1	0	0	0	0	2	216594,80	0,100000001	3,91101503	0,00027782397646125821	0,10001661587723395	0,000391166483	-0,13685180187579565	0,0051061247271904806	0,2119796636360272
1	1	0	0	0	0	2	217024,80	0,100000001	3,93507457	0,0002778247186885112	0,10001688307900323	0,000393573893	-0,12490534450259251	0,0046603863404135046	0,22392612100923034
1	1	0	0	0	0	2	217454,80	0,100000001	3,96031809	0,00027782462906216579	0,10001685081352392	0,000396098534	-0,11295888020108213	0,0042146476951320685	0,23587258531074074
1	1	0	0	0	0	2	217884,80	0,100000001	3,98708916	0,0002778245717576809	0,10001683018391256	0,000398776028	-0,1010123981669113	0,0037689083882212307	0,24781906734491158
1	1	0	0	0	0	2	218314,80	0,100000001	4,01508236	0,00027782496654532022	0,1000169723074405	0,00040157637	-0,089065919673395034	0,0033231692134169747	0,25976554583842781
1	1	0	0	0	0	2	218744,80	0,100000001	4,04380131	0,00027782475558502806	0,1000168963617472	0,000404448452	-0,077119445085449139	0,0028774301843348003	0,27171202042637366
1	1	0	0	0	0	2	219174,80	0,100000001	4,07337904	0,00027782453621758362	0,10001681738947955	0,00040740642	-0,065172983328209766	0,0024316916339835373	0,28365848218361306
1	1	0	0	0	0	2	219604,80	0,100000001	4,10274696	0,00027782547080102896	0,10001715383946723	0,000410345063	-0,053226517948853677	0,0019859529484862298	0,29560494756296909
1	1	0	0	0	0	2	220034,80	0,100000001	4,13150406	0,00027782494688241018	0,100016965228794	0,000413220492	-0,041280046296274291	0,0015402140289265264	0,30755141921554854
1	1	0	0	0	0	2	220464,80	0,100000001	4,15884781	0,00027782499898225075	0,10001698398473366	0,000415955408	-0,029333564574432646	0,0010944747336691099	0,31949790093739014
1	1	0	0	0	0	2	220894,80	0,100000001	4,18357563	0,00027782499761879446	0,10001698349388947	0,000418428623	-0,017387074464011299	0,00064873512542250637	0,33144439104781165
1	1	0	0	0	0	2	221214,62	0,100000001	4,19997931	0,00027261290810546938	0,10001694953882077	0,000420069118	-0,0085018703051621171	0,00031721621197179706	0,34032959520666086