File: Experimentelles/Rohdaten/Batterietests/AlteZelle/Studenten_Batterietests/Sonstige/ECLab-Export/LiCoO2 vs Li_02_CV_C01_loop10.mpt
EC-Lab ASCII FILE
Nb header lines : 3
mode	ox/red	error	control changes	counter inc.	time/s	control/V	Ewe/V	<I>/mA	cycle number	(Q-Qo)/C	P/W
2	0	0	1	0	10401,15	3,1055665	3,10584569	-0,94643217325210573	11	0	0,00293947221
2	0	0	0	0	10407,03	3,0467608	3,04707122	-0,76308137302597389	11	-0,00462885248	0,00232516322
2	0	0	1	0	10412,93	2,98775506	2,98779631	-0,73200098347539827	11	-0,00904029049	0,00218706974
2	0	0	1	0	10418,83	2,9287498	2,92894268	-0,70600118498357568	11	-0,0132835517	0,00206783693
2	0	0	0	0	10424,74	2,86974406	2,87007833	-0,68614334069813248	11	-0,0173908919	0,00196928508
2	0	0	1	0	10430,64	2,81073856	2,81080341	-0,67062546204154483	11	-0,021393979	0,00188499631
2	0	0	0	0	10436,54	2,75173306	2,75199938	-0,6583065005640201	11	-0,025315579	0,00181165908
2	0	0	1	0	10442,44	2,69272757	2,69297481	-0,64937831104422643	11	-0,0291752592	0,00174875942
2	0	0	1	0	10448,34	2,63372231	2,63414121	-0,64294667417804518	11	-0,0329907238	0,00169361231
2	0	0	0	0	10454,24	2,57471657	2,5748055	-0,63830765166009766	11	-0,0367734395	0,0016435181
2	0	0	1	0	10460,14	2,51571107	2,51584125	-0,63351033659030874	11	-0,0405291021	0,00159381144
2	0	0	0	0	10466,04	2,45670557	2,45706773	-0,62682765163481152	11	-0,0442520119	0,00154015794
2	0	0	0	0	10471,94	2,39769983	2,39798307	-0,61501901270821606	11	-0,0479222462	0,00147480518
2	0	0	1	0	10477,84	2,33869457	2,33887839	-0,59506945684552192	11	-0,0515002497	0,00139179511
2	0	0	0	0	10483,74	2,27968884	2,28004432	-0,56618623823548294	11	-0,0549337007	0,00129092974
2	0	0	1	0	10489,64	2,22068357	2,22089958	-0,53117733448743866	11	-0,0581761114	0,00117969152
2	0	0	1	0	10495,54	2,16167808	2,1619556	-0,49689784289027328	11	-0,0612109527	0,00107427104
2	0	0	0	0	10501,44	2,10267258	2,10283041	-0,46817246405407898	11	-0,0640576407	0,00098448724
2	0	0	1	0	10507,34	2,04366684	2,04403687	-0,44731122783074938	11	-0,0667577162	0,000914320641
2	0	0	0	0	10513,24	1,98466134	1,9851228	-0,43439279031008659	11	-0,0693588704	0,000862323039
2	0	0	0	0	10519,14	1,92565596	1,92588782	-0,42819329428796979	11	-0,0719035491	0,000824652263
2	0	0	1	0	10525,04	1,86665058	1,86697352	-0,42615867840746982	11	-0,0744261816	0,000795626955
2	0	0	0	0	10530,95	1,80764496	1,80802941	-0,42886872449889779	11	-0,0769512281	0,000775407243
2	0	0	1	0	10536,85	1,74863946	1,74884439	-0,43502769743402861	11	-0,0795026943	0,000760795723
2	0	0	1	0	10542,75	1,68963408	1,68995047	-0,44479633774608371	11	-0,0821017697	0,00075168378
2	0	0	0	0	10548,65	1,63062847	1,63087583	-0,45550434741502157	11	-0,0847621337	0,000742871023
2	0	0	1	0	10554,55	1,57162297	1,572052	-0,4675429593771705	11	-0,0874889493	0,000735001871
2	0	0	0	0	10560,45	1,51261759	1,51272678	-0,48444501993556877	11	-0,0902992785	0,000732832938
2	0	0	0	0	10566,35	1,45361197	1,45384276	-0,50664650943751168	11	-0,0932231173	0,000736584363
2	0	0	1	0	10572,25	1,39460647	1,3949585	-0,53763115561256659	11	-0,096301876	0,000749973173
2	0	0	0	0	10578,15	1,33560097	1,33577371	-0,58114564372226573	11	-0,0995971039	0,000776279077
2	0	0	1	0	10584,05	1,27659547	1,27693987	-0,64674229702601946	11	-0,103211991	0,00082585105
2	0	0	1	0	10589,95	1,21758997	1,21783519	-0,74021642779310464	11	-0,107296474	0,000901461637
2	0	0	0	0	10595,85	1,15858448	1,15901113	-0,85537837228427277	11	-0,112000801	0,000991392997
2	0	0	1	0	10601,75	1,09957898	1,10017717	-0,98495310979584883	11	-0,117428929	0,00108362292
2	0	0	0	0	10607,69	1,04017341	1,04014027	-1,1320710095266477	11	-0,123706609	0,00117751269
2	1	0	1	0	10613,54	1,01827133	1,01861775	-0,98992995731532928	11	-0,130497247	0,00100836018
2	1	0	0	0	10619,44	1,07727683	1,07735133	-0,60202739791323622	11	-0,135070175	0,000648595043
2	1	0	1	0	10625,38	1,13668227	1,13720787	-0,38477342311913619	11	-0,13793759	0,00043756736
2	1	0	1	0	10631,29	1,19568706	1,19596088	-0,25416552415003446	11	-0,139788851	0,000303972018
2	1	0	0	0	10637,19	1,25469351	1,25502622	-0,16772270536360656	11	-0,141012922	0,000210496393
2	1	0	1	0	10643,09	1,31369913	1,31405067	-0,10633826581761219	11	-0,141808048	0,000139733864
2	1	0	0	0	10648,99	1,37270451	1,37297487	-0,060427563167953165	11	-0,142290831	8,29655255E-005
2	1	0	1	0	10654,93	1,43211007	1,43249047	-0,024669246321233683	11	-0,142535672	3,53384603E-005
2	1	0	1	0	10660,87	1,49151552	1,49175549	0,006077773054130368	11	-0,142586231	9,06655168E-006
2	1	0	0	0	10666,81	1,55092108	1,55118096	0,031126757210586163	11	-0,142472982	4,82832329E-005
2	1	0	1	0	10672,71	1,60992646	1,61002481	0,054908542292347872	11	-0,142215699	8,84041146E-005
2	1	0	0	0	10678,61	1,66893208	1,66907942	0,077970406583820595	11	-0,141821355	0,000130138797
2	1	0	0	0	10684,55	1,72833753	1,72857487	0,10104293449937035	11	-0,141286403	0,000174660279
2	1	0	1	0	10690,45	1,78734303	1,78770959	0,12500798872982466	11	-0,140615821	0,000223477982
2	1	0	0	0	10696,35	1,84634864	1,84661388	0,14947123437498976	11	-0,139802948	0,000276015664
2	1	0	1	0	10702,25	1,90535426	1,90569842	0,17305258250174438	11	-0,138846874	0,000329786038
2	1	0	1	0	10708,15	1,96435964	1,96473277	0,19559157430194317	11	-0,137754023	0,000384285173
2	1	0	0	0	10714,05	2,02336502	2,02363706	0,21494477343124707	11	-0,136537269	0,000434970221
2	1	0	1	0	10719,95	2,08237076	2,0826211	0,23159039098148538	11	-0,135213986	0,000482315023
2	1	0	0	0	10725,85	2,14137626	2,14166546	0,24531849652218262	11	-0,133802295	0,000525390147
2	1	0	0	0	10731,75	2,20038033	2,20040989	0,25610665360303565	11	-0,13231732	0,000563539623
2	1	0	1	0	10737,66	2,25938702	2,25976491	0,26554282762420602	11	-0,130773723	0,000600064348
2	1	0	0	0	10743,56	2,31839252	2,31864882	0,27255549607798458	11	-0,129182532	0,000631960458
2	1	0	1	0	10749,46	2,37739801	2,377563	0,27860235989404246	11	-0,127553686	0,000662394683
2	1	0	1	0	10755,36	2,43640304	2,43681669	0,2836616820860911	11	-0,125892103	0,000691231515
2	1	0	0	0	10761,26	2,49540925	2,49569201	0,28816447065522198	11	-0,124200784	0,000719169795
2	1	0	1	0	10767,16	2,55441475	2,55467629	0,29345546298039341	11	-0,122481495	0,000749683706
2	1	0	0	0	10773,06	2,61342025	2,61369085	0,29936892058079456	11	-0,120729849	0,000782457821
2	1	0	1	0	10778,96	2,67242599	2,67279506	0,3079634982715769	11	-0,118936837	0,000823123322
2	1	0	1	0	10784,86	2,73143125	2,73177981	0,31995723443105818	11	-0,117083259	0,000874052697
2	1	0	0	0	10790,76	2,79043651	2,79070377	0,33633026930813958	11	-0,115147255	0,000938598125
2	1	0	1	0	10796,66	2,84944224	2,84973836	0,3644239681307209	11	-0,113086544	0,00103851291
2	1	0	0	0	10802,56	2,90844798	2,9086132	0,39564193236015744	11	-0,110832289	0,0011507693
2	1	0	0	0	10808,46	2,96745324	2,96767688	0,42115567935009677	11	-0,108423129	0,00124985399
2	1	0	1	0	10814,36	3,02645874	3,02648091	0,45440059900283814	11	-0,105840206	0,00137523469
2	1	0	0	0	10820,26	3,08546424	3,085706	0,49542341521009715	11	-0,103038512	0,00152873097
2	1	0	1	0	10826,16	3,14446974	3,14470029	0,5458350330591193	11	-0,0999678373	0,00171648758
2	1	0	1	0	10832,06	3,203475	3,20363402	0,60517098149284544	11	-0,0965732858	0,00193874631
2	1	0	0	0	10837,96	3,2624805	3,26272917	0,66826178490494566	11	-0,0928133205	0,00218035723
2	1	0	1	0	10843,87	3,32148623	3,32154274	0,72735252308969574	11	-0,088689439	0,00241593248
2	1	0	0	0	10849,77	3,3804915	3,38069749	0,77391543006524083	11	-0,0842515677	0,00261637405
2	1	0	0	0	10855,67	3,43949699	3,43968177	0,81043271751453363	11	-0,079570137	0,00278763054
2	1	0	1	0	10861,57	3,49850273	3,49841595	0,84534075856208973	11	-0,0746831819	0,0029573536
2	1	0	0	0	10867,47	3,55750799	3,55768085	0,88921734845886746	11	-0,069567591	0,00316355145
2	1	0	1	0	10873,37	3,61651349	3,61683583	0,9504913125808041	11	-0,064144358	0,003437771
2	1	0	1	0	10879,30	3,67581987	3,67590952	1,027086147088217	11	-0,0582861006	0,00377547578
2	1	0	0	0	10885,20	3,73482466	3,73478436	1,1202259923641834	11	-0,0519557148	0,00418380275
2	1	0	1	0	10891,10	3,79383039	3,79391861	1,2315320729588475	11	-0,0450223833	0,00467233267
2	1	0	0	0	10897,00	3,85283589	3,85297346	1,359486694758135	11	-0,037382517	0,00523806596
2	1	0	0	0	10902,90	3,91184092	3,91219783	1,5045946394214019	11	-0,0289374217	0,00588627206
2	1	0	1	0	10908,80	3,97084689	3,97096181	1,673285095642015	11	-0,019572353	0,00664455118
2	1	0	0	0	10914,70	4,02985239	4,02998638	1,8863601268579443	11	-0,00908954069	0,00760200573
2	1	0	1	0	10920,60	4,08885765	4,08890057	2,156220886235433	11	0,00281005399	0,00881657284
2	1	0	0	0	10926,50	4,14786339	4,14793491	2,502745322883129	11	0,0165188685	0,0103812246
2	0	0	0	1	10932,34	4,19366741	4,19385767	2,734132139633104	11	0,0323102921	0,0114665609
2	0	0	1	1	10938,24	4,13466167	4,13461256	1,839733288312953	11	0,0456364006	0,00760658458
2	0	0	0	1	10944,14	4,07565641	4,07579851	1,1843442457417624	11	0,0544610061	0,00482714875
2	0	0	1	1	10950,05	4,0166502	4,01689291	0,69038307451493466	11	0,0599180236	0,00277319481
2	0	0	1	1	10955,99	3,95724535	3,9572885	0,31459181786825229	11	0,0628455803	0,00124493055
2	0	0	0	1	10961,93	3,89784002	3,89798379	0,031742151855723866	11	0,0638309494	0,000123730395
2	0	0	1	1	10967,87	3,83843422	3,83852816	-0,18834002867030586	11	0,063337341	0,00072294852
2	0	0	0	1	10973,77	3,77942872	3,77957368	-0,36568388141070906	11	0,0616818555	0,00138212915
2	0	0	0	1	10979,67	3,72042346	3,72054911	-0,51656117290258406	11	0,0590632074	0,00192189123
2	0	0	1	1	10985,57	3,66141796	3,66151476	-0,64886188895130957	11	0,0556121133	0,00237581739
2	0	0	0	1	10991,47	3,60241222	3,60237002	-0,76317151154701965	11	0,0514337756	0,00274922629
2	0	0	1	1	10997,37	3,54340696	3,54377699	-0,8563602582241111	11	0,0466397777	0,00303474977
2	0	0	1	1	11003,27	3,48440146	3,48436141	-0,9244215690220407	11	0,0413686857	0,00322101894
2	0	0	0	1	11009,17	3,42539573	3,42562747	-0,96220632238934554	11	0,0357848555	0,00329616037
2	0	0	1	1	11015,07	3,36639047	3,36660314	-0,97133731748908774	11	0,0300627444	0,00327010732
2	0	0	0	1	11020,97	3,30738497	3,30760884	-0,95612563037624205	11	0,0243616197	0,00316248951
2	0	0	1	1	11026,87	3,24837804	3,24872279	-0,92348978108485363	11	0,0188052766	0,00300016231
2	0	0	1	1	11032,77	3,18937373	3,1894598	-0,88244702698042406	11	0,0134707782	0,00281452923
2	0	0	0	1	11038,67	3,13036799	3,13073611	-0,83838397078215987	11	0,00839060172	0,00262475898
2	0	0	1	1	11041,09	3,1061666	3,10664773	-0,82191983553079411	11	0,00638537388	0,00255341548