File: Experimentelles/Rohdaten/Batterietests/AlteZelle/Studenten_Batterietests/Sonstige/ECLab-Export/S vs Li_05_GCPL_C02_loop8.mpt
EC-Lab ASCII FILE
Nb header lines : 3
mode	ox/red	error	control changes	Ns changes	counter inc.	Ns	time/s	control/V/mA	Ewe/V	dq/mA.h	<I>/mA	P/W	(Q-Qo)/mA.h	x	Capacity/mA.h
1	0	0	1	1	0	1	534002,30	-0,100000001	2,60411215	0	0	0	0	0	0
1	0	0	1	0	0	1	535092,32	-0,100000001	2,19239426	-0,00027771440890679757	-0,099975309858344141	0,000219185298	-0,030269410287532538	0,0011293923954828102	0,030269410287532538
1	0	0	1	0	0	1	536182,34	-0,100000001	2,17398834	-0,0002777138648819592	-0,099975114017735309	0,000217344728	-0,060540251247188262	0,002258838171266096	0,060540251247188262
1	0	0	1	0	0	1	537272,36	-0,100000001	2,15846276	-0,00027771463495741286	-0,099975391239692915	0,000215793159	-0,090811146103712461	0,0033882859580140096	0,090811146103712461
1	0	0	1	0	0	1	538362,38	-0,100000001	2,14238381	-0,0002777147813157903	-0,099975443923064051	0,000214185769	-0,12108205988544558	0,0045177344508869126	0,12108205988544558
1	0	0	1	0	0	1	539452,40	-0,100000001	2,12384439	-0,00027771371046039795	-0,099975058427017139	0,000212331463	-0,15135292439486246	0,0056471811053434496	0,15135292439486246
1	0	0	1	0	0	1	540542,42	-0,100000001	2,10170031	-0,0002777145918173095	-0,099975375709547341	0,000210118276	-0,18162376216428512	0,0067766267620948506	0,18162376216428512
1	0	0	1	0	0	1	541632,44	-0,100000001	2,07661891	-0,00027771365397423507	-0,099975038090052672	0,00020761005	-0,2118946032516679	0,0079060725426438054	0,2118946032516679
1	0	0	1	0	0	1	542722,46	-0,100000001	2,03353214	-0,00027771351332962512	-0,099974987461271526	0,000203302348	-0,2421654224749208	0,0090355175074126758	0,2421654224749208
1	0	0	1	0	0	1	543812,48	-0,100000001	1,99441254	-0,00027771344055980442	-0,099974961264627994	0,000199391317	-0,27243621676371686	0,010164961541843438	0,27243621676371686
1	0	0	1	0	0	1	544902,50	-0,100000001	1,98113739	-0,00027771376842136182	-0,099975079290244634	0,000198064372	-0,30270696878913267	0,011294403999370659	0,30270696878913267
1	0	0	1	0	0	1	545992,52	-0,100000001	1,96978879	-0,00027771328757123814	-0,09997490618977833	0,000196929454	-0,33297772193964314	0,012423846498876675	0,33297772193964314
1	0	0	1	0	0	1	547082,54	-0,100000001	1,96626019	-0,00027771283792538771	-0,09997474432031177	0,000196576366	-0,36324847332978938	0,013553288932701133	0,36324847332978938
1	0	0	1	0	0	1	548172,56	-0,100000001	1,95849729	-0,00027771306160257923	-0,099974824839097152	0,000195800429	-0,39351921571247814	0,014682731030445245	0,39351921571247814
1	0	0	1	0	0	1	549262,58	-0,100000001	1,95229852	-0,00027771249633820525	-0,099974621351235213	0,000195180299	-0,42378996499478336	0,015812173385623322	0,42378996499478336
1	0	0	1	0	0	1	550352,60	-0,100000001	1,95287073	-0,00027771205566616518	-0,099974462712279718	0,000195237197	-0,4540605902299001	0,016941611112434013	0,4540605902299001
1	0	0	1	0	0	1	551442,63	-0,100000001	1,94501245	-0,00027771275203136931	-0,099974713395554278	0,000194452063	-0,48433126675048768	0,018071050752774576	0,48433126675048768
1	0	0	1	0	0	1	552532,65	-0,100000001	1,9431814	-0,00027771300825352474	-0,099974805637289677	0,000194269189	-0,51460195109355155	0,019200490684982246	0,51460195109355155
1	0	0	1	0	0	1	553622,67	-0,100000001	1,9409498	-0,00027771257918907539	-0,09997465117698839	0,000194045773	-0,5448726420097049	0,02032993086244072	0,5448726420097049
1	0	0	1	0	0	1	554712,69	-0,100000001	1,93744028	-0,00027771261851034234	-0,099974665328887168	0,000193694941	-0,57514330159889427	0,021459369871048051	0,57514330159889427
1	0	0	1	0	0	1	555802,71	-0,100000001	1,93108892	-0,00027771167879261904	-0,099974327040350771	0,000193059313	-0,60541394339624192	0,022588808215817843	0,60541394339624192
1	0	0	1	0	0	1	556892,73	-0,100000001	1,92214346	-0,00027771189861992992	-0,09997440617669664	0,000192165156	-0,6356845421229248	0,023718244953563229	0,6356845421229248
1	0	0	1	0	0	1	557982,75	-0,100000001	1,9086777	-0,00027771245072575078	-0,099974604927568435	0,000190819293	-0,66595521369498253	0,024847684409267491	0,66595521369498253
1	0	0	1	0	0	1	559072,77	-0,100000001	1,8820703	-0,00027771238189232016	-0,099974580151490227	0,000188159189	-0,69622585434848781	0,025977122711358989	0,69622585434848781
1	0	0	1	0	0	1	560162,79	-0,100000001	1,82874119	-0,00027771270179210442	-0,099974695313250035	0,000182827847	-0,72649651800647219	0,027106561871778531	0,72649651800647219
1	0	0	1	0	0	1	561252,81	-0,100000001	1,46567941	-0,00027771209046865504	-0,09997447523861312	0,000146530525	-0,75676720928046989	0,028236002062588662	0,75676720928046989
1	0	0	1	0	0	1	562342,83	-0,100000001	1,08976233	-0,00027771229662622016	-0,09997454945627063	0,000108948501	-0,78703786752431526	0,029365441020999398	0,78703786752431526
1	1	0	0	0	0	2	563420,60	0,100000001	2,46644044	0,00027781095774720112	0,1000100667928767	0,000246668875	-0,76752652511495514	0,028637446602427299	0,024725289239493514
1	1	0	0	0	0	2	564510,62	0,100000001	2,43300486	0,00027781209318960707	0,10001047553981027	0,00024332598	-0,73724504615712384	0,027507603908629142	0,055006768197324563
1	1	0	0	0	0	2	565600,64	0,100000001	2,43050623	0,00027781258613450659	0,10001065300129882	0,000243076516	-0,70696349051946317	0,026377758353803453	0,085288323834984704
1	1	0	0	0	0	2	566690,66	0,100000001	2,43514109	0,00027781325887805882	0,10001089518442989	0,000243540635	-0,67668186896014195	0,025247910339351978	0,11556994539430621
1	1	0	0	0	0	2	567780,68	0,100000001	2,43954706	0,0002778126365074681	0,10001067113522443	0,000243980743	-0,64640030602169459	0,024118064512124125	0,14585150833275357
1	1	0	0	0	0	2	568870,70	0,100000001	2,44135904	0,00027781377842856784	0,10001108221910098	0,000244162948	-0,6161186894670729	0,022988216684404717	0,17613312488737552
1	1	0	0	0	0	2	569960,72	0,100000001	2,45139146	0,00027781330248589312	0,10001091088295546	0,000245165895	-0,58583710517463654	0,021858370060430819	0,2064147091798121
1	1	0	0	0	0	2	571050,74	0,100000001	2,44584107	0,00027781262877666291	0,10001066835218682	0,000244610186	-0,55555550690445242	0,020728522914928362	0,23669630744999616
1	1	0	0	0	0	2	572140,76	0,100000001	2,4476912	0,00027781257803365587	0,10001065008504733	0,000244795199	-0,52527393032490874	0,019598676578732864	0,26697788402954026
1	1	0	0	0	0	2	573230,78	0,100000001	2,45354676	0,00027781247965867318	0,10001061467071858	0,00024538071	-0,4949923353520105	0,018468829556256576	0,29725947900243802
1	1	0	0	0	0	2	574320,80	0,100000001	2,45480561	0,00027781303268050157	0,10001081375483835	0,000245507108	-0,46471074936825478	0,017338982869177277	0,32754106498619366
1	1	0	0	0	0	2	575410,82	0,100000001	2,45160127	0,00027781330810570054	0,10001091290604813	0,000245186879	-0,43442911636608486	0,016209134427777734	0,35782269798836365
1	1	0	0	0	0	2	576500,84	0,100000001	2,46224427	0,00027781357953821622	0,10001101061991888	0,000246251526	-0,40414745066341875	0,015079284766278707	0,38810436369102976
1	1	0	0	0	0	2	577590,86	0,100000001	2,45844865	0,00027781288845009274	0,10001076183286618	0,000245871313	-0,37386575910213325	0,013949434139959826	0,4183860552523152
1	1	0	0	0	0	2	578680,88	0,100000001	2,46626878	0,00027781410282436349	0,1000111989993945	0,000246654497	-0,34358406674597421	0,012819583483983146	0,4486677476084743
1	1	0	0	0	0	2	579770,90	0,100000001	2,45799088	0,00027781414471690851	0,10001121408042754	0,000245826639	-0,31330235739725971	0,01168973219399137	0,4789494569571888
1	1	0	0	0	0	2	580860,93	0,100000001	2,46272111	0,00027781322580410378	0,10001088327802965	0,000246298907	-0,28302068429359568	0,010559882256351165	0,50923113006085299
1	1	0	0	0	0	2	581950,95	0,100000001	2,46974015	0,00027781273274372019	0,10001070577962464	0,000247000455	-0,2527390625320249	0,0094300342343534848	0,53951275182242387
1	1	0	0	0	0	2	583040,97	0,100000001	2,47702622	0,00027781337972233693	0,1000109386875531	0,000247729709	-0,22245746275123418	0,008300187032488265	0,5697943516032151
1	1	0	0	0	0	2	584130,99	0,100000001	2,48782158	0,00027781227328711082	0,10001054037835118	0,000248808385	-0,19217587248178707	0,0071703401855040614	0,6000759418726624
1	1	0	0	0	0	2	585221,01	0,100000001	2,48562837	0,00027781285162352854	0,10001074857089499	0,000248589553	-0,16189423057122013	0,0060404914117202445	0,63035758378322893
1	1	0	0	0	0	2	586311,03	0,100000001	2,49590874	0,00027781337201553917	0,10001093591315798	0,00024961817	-0,13161262162337181	0,0049106438678197798	0,66063919273107738
1	1	0	0	0	0	2	587401,05	0,100000001	2,49281883	0,00027781249094050794	0,10001061873210282	0,000249308359	-0,10133097925209485	0,0037807950768462534	0,69092083510235456
1	1	0	0	0	0	2	588491,07	0,100000001	2,49371529	0,00027781281277661523	0,1000107345862688	0,00024939829	-0,071049358093610458	0,0026509470773505389	0,72120245626083866
1	1	0	0	0	0	2	589581,09	0,100000001	2,49886513	0,00027781343592827517	0,10001095892131091	0,000249913894	-0,040767750106602272	0,0015210995693003107	0,75148406424784742
1	1	0	0	0	0	2	590671,11	0,100000001	2,51191139	0,00027781345524224973	0,1000109658742112	0,000251218677	-0,010486117615788118	0,00039125114698013619	0,78176569673866138
1	1	0	0	0	0	2	591761,13	0,100000001	2,52976394	0,00027781334117344688	0,10001092480555624	0,000253004022	0,019795542166803267	-0,00073859829363294118	0,81204735652125286
1	1	0	0	0	0	2	592851,15	0,100000001	2,53382659	0,0002778129897883369	0,10001079831394902	0,00025341002	0,050077200379121882	-0,0018684476756570298	0,84232901473357184
1	1	0	0	0	0	2	593941,17	0,100000001	2,54462218	0,0002778127928401033	0,10001072741391632	0,000254489511	0,080358839561312806	-0,0029982963476414682	0,87261065391576307
1	1	0	0	0	0	2	595031,19	0,100000001	2,55999541	0,00027781343418856461	0,10001095829269837	0,00025602759	0,11064047957636272	-0,0041281450507009952	0,90289229393081331
1	1	0	0	0	0	2	596121,21	0,100000001	2,57855368	0,00027781254679295754	0,1000106388386071	0,000257882813	0,14092212815689974	-0,0052579940733503635	0,9331739425113504
1	1	0	0	0	0	2	597211,23	0,100000001	2,64920163	0,00027781298671083315	0,1000107972060685	0,000264948758	0,17120377894529632	-0,0063878431783779392	0,96345559329974682
1	1	0	0	0	0	2	598301,25	0,100000001	2,81958389	0,00027781354829130896	0,10001099936891499	0,0002819894	0,20148542579244877	-0,0075176921363523981	0,99373724014689907
1	1	0	0	0	0	2	598530,54	0,100000001	2,8453331	0,00025781144539308214	0,10001102763848771	0,000284564681	0,20785513899146365	-0,0077553546999781235	1,0001069533459141