File: Experimentelles/Rohdaten/Batterietests/AlteZelle/Studenten_Batterietests/Sonstige/ECLab-Export/S vs Li_02_CV_C02_loop5.mpt
EC-Lab ASCII FILE
Nb header lines : 3
mode	ox/red	error	control changes	counter inc.	time/s	control/V	Ewe/V	<I>/mA	cycle number	(Q-Qo)/C	P/W
2	0	0	1	0	7300,63	2,39305282	2,39350533	-0,039676383137702944	6	0	9,49656314E-005
2	0	0	0	0	7307,15	2,32784343	2,32841516	-0,37383512275604058	6	-0,00131541956	0,000870443357
2	0	0	0	0	7313,66	2,26283455	2,26340556	-0,77765331634631168	6	-0,00502572441	0,00176014483
2	0	0	1	0	7320,20	2,1974256	2,19789553	-1,2309082361559085	6	-0,0115943961	0,00270540779
2	0	0	1	0	7326,70	2,13241673	2,13291621	-1,6890692977855542	6	-0,0210701115	0,00360264326
2	0	0	0	0	7333,20	2,06740761	2,06785655	-2,1544969131549152	6	-0,0335253142	0,00445519062
2	0	0	0	0	7339,70	2,00239873	2,00288701	-2,6560980969419069	6	-0,0491496213	0,00531986449
2	0	0	1	0	7346,20	1,93739009	1,93795741	-3,1340075023472416	6	-0,0680030212	0,00607357314
2	0	0	1	0	7352,70	1,87238097	1,87294793	-3,5889154088993965	6	-0,0898972452	0,00672185188
2	0	0	0	0	7359,20	1,80737197	1,80778801	-4,0572821274399757	6	-0,11473342	0,00733470591
2	0	0	0	0	7365,70	1,74236333	1,74275851	-4,3871845304966042	6	-0,142176509	0,00764580304
2	0	0	0	0	7372,20	1,67735422	1,67777908	-4,576116744428887	6	-0,171451345	0,00767771294
2	0	0	1	0	7378,70	1,61234546	1,61300969	-4,8419697818656858	6	-0,202069893	0,00781014422
2	0	0	1	0	7385,21	1,54733658	1,54776001	-5,1448766514659072	6	-0,234544024	0,00796303432
2	0	0	0	0	7391,71	1,48232746	1,48289073	-5,4407572249571533	6	-0,268971115	0,0080680484
2	0	0	0	0	7398,21	1,4173187	1,41788101	-5,7306570373475552	6	-0,305401444	0,00812538993
2	0	0	1	0	7404,71	1,3523097	1,35278141	-5,9645897100369331	6	-0,343400985	0,008068786
2	0	0	1	0	7411,21	1,28730083	1,28771174	-6,1617027993003712	6	-0,382732362	0,00793449674
2	0	0	0	0	7417,71	1,22229195	1,22277224	-6,4357571924726387	6	-0,423631012	0,00786946528
2	0	0	0	0	7424,21	1,15728295	1,15759242	-6,6040493523081242	6	-0,465993553	0,00764479768
2	0	0	1	0	7430,71	1,09227407	1,09276307	-6,7648765022556173	6	-0,509532034	0,00739240739
2	0	0	1	0	7437,21	1,02726519	1,02788365	-6,950541662673175	6	-0,554043949	0,00714434823
2	0	0	0	0	7443,71	0,962256312	0,962804139	-7,0749985203146931	6	-0,599633873	0,00681183767
2	0	0	0	0	7450,21	0,897247434	0,897734404	-7,1038679232200154	6	-0,645703554	0,00637738686
2	0	0	1	0	7456,72	0,832238495	0,832654774	-7,2374434937039846	6	-0,692311585	0,00602629175
2	0	0	1	0	7463,22	0,767229617	0,767805457	-7,3423576479156864	6	-0,739810824	0,0056375023
2	0	0	1	0	7469,72	0,702220678	0,702785909	-7,4862753575047091	6	-0,788056314	0,00526124891
2	0	0	0	0	7476,22	0,6372118	0,637776375	-7,5884758308529856	6	-0,837221742	0,00483975047
2	0	0	0	0	7482,72	0,572202861	0,572716713	-7,7648260196050099	6	-0,887138784	0,00444704574
2	0	0	1	0	7489,22	0,507193983	0,507667065	-8,006678732732951	6	-0,938405156	0,00406472711
2	1	0	0	0	7495,67	0,557300806	0,557836235	-7,4083203275998528	6	-0,988305449	0,00413262937
2	1	0	0	0	7502,17	0,622309804	0,622815728	-6,8580161233743053	6	-1,03472757	0,00427128049
2	1	0	1	0	7508,67	0,687318683	0,6877352	-6,4145701030890342	6	-1,07792509	0,00441152556
2	1	0	1	0	7515,17	0,752327561	0,752945006	-5,999488747368247	6	-1,11822724	0,00451728515
2	1	0	1	0	7521,67	0,817336738	0,817814529	-5,6066877265158157	6	-1,15595269	0,00458523072
2	1	0	0	0	7528,18	0,882345438	0,882863998	-5,2010311509172026	6	-1,19108963	0,00459180307
2	1	0	0	0	7534,68	0,947354257	0,947943568	-4,8770318875710214	6	-1,22383368	0,00462315092
2	1	0	1	0	7541,18	1,01236308	1,01267278	-4,5132079633573773	6	-1,25429928	0,00457040267
2	1	0	1	0	7547,68	1,07737207	1,07782245	-4,1638272615770547	6	-1,28248692	0,00448786654
2	1	0	0	0	7554,18	1,14238083	1,14303231	-3,8179018273949677	6	-1,30841339	0,00436398527
2	1	0	0	0	7560,68	1,20738995	1,20808196	-3,4990011863410618	6	-1,33222401	0,00422708038
2	1	0	1	0	7567,18	1,27239883	1,27306151	-3,2006818217535763	6	-1,35404277	0,00407466479
2	1	0	1	0	7573,68	1,33740771	1,33789086	-2,9019586909562368	6	-1,37388253	0,00388250407
2	1	0	0	0	7580,18	1,40241671	1,40290034	-2,6102552941689901	6	-1,39179862	0,003661928
2	1	0	0	0	7586,68	1,46742547	1,46820033	-2,3135879095643782	6	-1,40782166	0,0033968105
2	1	0	1	0	7593,18	1,53243446	1,53291953	-2,0510126811762746	6	-1,42202199	0,00314403744
2	1	0	1	0	7599,69	1,59744334	1,5980891	-1,7918959334492646	6	-1,43451774	0,00286360946
2	1	0	1	0	7606,19	1,66245222	1,66303861	-1,5624016746878678	6	-1,44542038	0,00259833434
2	1	0	0	0	7612,69	1,72746122	1,72793818	-1,3017041357234155	6	-1,45470583	0,00224926416
2	1	0	0	0	7619,19	1,7924701	1,7926271	-1,0562618598341942	6	-1,4623692	0,00189348368
2	1	0	1	0	7625,69	1,8574791	1,85784709	-0,81894228079666573	6	-1,46846759	0,00152146956
2	1	0	1	0	7632,19	1,92248774	1,92295682	-0,5881397887133079	6	-1,47303939	0,0011309674
2	1	0	0	0	7638,73	1,98789704	1,98853695	-0,36204875578793504	6	-1,47615182	0,000719947333
2	1	0	0	0	7645,23	2,05290556	2,05360675	-0,14669701616124518	6	-1,47780347	0,000301257969
2	1	0	1	0	7651,85	2,11911464	2,11952734	0,066604689112864435	6	-1,47806478	0,000141170458
2	1	0	1	0	7658,39	2,18452382	2,18491745	0,2754165572114289	6	-1,47694445	0,00060176244
2	1	0	0	0	7664,89	2,2495327	2,25009727	0,48335715864474541	6	-1,47447491	0,0010876006
2	1	0	0	0	7671,40	2,31454158	2,3149066	0,69057809266572083	6	-1,47066927	0,00159862381
2	1	0	1	0	7677,90	2,37955046	2,38009644	0,8974991322805463	6	-1,46549475	0,00213613454
2	1	0	1	0	7684,43	2,44485927	2,4453063	1,1203764962653349	6	-1,45889163	0,0027396637
2	1	0	0	0	7690,93	2,50986862	2,5100956	1,3558341671402267	6	-1,4508357	0,00340327341
2	1	0	0	0	7697,43	2,57487726	2,5753355	1,5936684943735565	6	-1,4412595	0,00410423102
2	1	0	1	0	7703,93	2,63988614	2,64044523	1,8363088630139827	6	-1,43013	0,00484867301
2	1	0	1	0	7710,43	2,70489526	2,70531416	2,0862347980340355	6	-1,41739345	0,00564392051
2	1	0	0	0	7716,93	2,76990438	2,77025437	2,3324403807600307	6	-1,40303659	0,00646145316
2	1	0	0	0	7723,43	2,83491278	2,8354938	2,6249934751540422	6	-1,38693464	0,00744315283
2	1	0	0	0	7729,93	2,89992213	2,90064383	2,9132339538385421	6	-1,36892998	0,00845025387
2	1	0	1	0	7736,43	2,96493077	2,965523	3,1664975285530054	6	-1,34915662	0,00939032156
2	1	0	1	0	7742,94	3,02993965	3,03031206	3,4135881910721363	6	-1,32774317	0,0103442371
2	1	0	0	0	7749,44	3,09494877	3,0952518	3,7204928025603258	6	-1,30461276	0,0115158623
2	1	0	0	0	7755,94	3,15995717	3,16055155	3,9940306109686643	6	-1,27957344	0,0126233399
2	1	0	1	0	7762,44	3,22496629	3,22535062	4,2534059261282093	6	-1,25281584	0,0137187252
2	1	0	1	0	7768,94	3,2899754	3,29058051	4,5578599994381152	6	-1,22422326	0,0149980057
2	1	0	0	0	7775,44	3,35498405	3,35538983	4,6267471735676154	6	-1,19365227	0,0155245401
2	1	0	0	0	7781,94	3,41999292	3,42053986	5,2119456777970042	6	-1,16194332	0,0178276673
2	1	0	1	0	7788,44	3,4850018	3,48537922	5,493342785785593	6	-1,12691033	0,0191463828
2	1	0	1	0	7794,94	3,55001092	3,55064893	5,9029726100464397	6	-1,08975255	0,0209593829
2	1	0	1	0	7801,44	3,61501908	3,61556792	6,3039351942805837	6	-1,0499326	0,0227923058
2	1	0	0	0	7807,94	3,68002868	3,68056774	6,7224418943127091	6	-1,00755715	0,0247424021
2	1	0	0	0	7814,44	3,74503732	3,74553823	7,14735775784304	6	-0,962812006	0,0267707016
2	1	0	1	0	7820,95	3,81004643	3,81050706	7,6151038929820058	6	-0,914978921	0,0290174074
2	1	0	1	0	7827,45	3,87505531	3,87558675	8,1351744259396813	6	-0,864079833	0,0315285735
2	1	0	0	0	7833,95	3,94006443	3,94077635	9,2869995782772749	6	-0,807842672	0,0365979895
2	1	0	0	0	7840,49	4,00547314	4,00584602	10,03148378431797	6	-0,744397461	0,0401845798
2	1	0	1	0	7846,99	4,07048225	4,07094574	10,936444272597629	6	-0,676100075	0,0445216708
2	1	0	1	0	7853,49	4,13549089	4,13598537	11,620724439620971	6	-0,602619767	0,0480631478
2	0	0	0	1	7859,94	4,20000076	4,20071507	12,67017129751349	6	-0,52264148	0,0532237813
2	0	0	1	1	7866,42	4,13519144	4,13564491	11,485414209465176	6	-0,444734216	0,0474995933
2	0	0	1	1	7872,92	4,07018232	4,0704751	10,19577053685984	6	-0,373719782	0,0415016301
2	0	0	0	1	7879,42	4,00517321	4,00555611	8,9397055804729178	6	-0,311334461	0,0358084925
2	0	0	0	1	7885,93	3,94016457	3,94053626	7,8413795754313536	6	-0,256998926	0,0308992397
2	0	0	1	1	7892,43	3,87515569	3,87579679	6,7658280804753229	6	-0,209633723	0,0262229741
2	0	0	1	1	7898,93	3,81014633	3,81061721	5,8291708305477952	6	-0,168836057	0,0222127382
2	0	0	0	1	7905,43	3,74513698	3,745646	5,1006259215646778	6	-0,133659214	0,0191051383
2	0	0	0	1	7911,97	3,67972875	3,6801672	4,4352955246965069	6	-0,102509215	0,0163226295
2	0	0	1	1	7918,47	3,61471844	3,61530685	3,911447948832617	6	-0,0753061548	0,0141410846
2	0	0	1	1	7924,97	3,54971099	3,55048871	3,4549786647160768	6	-0,0513767935	0,0122668631
2	0	0	1	1	7931,47	3,48470211	3,48525882	3,0872763829926554	6	-0,0301660113	0,0107599571
2	0	0	0	1	7937,97	3,41969275	3,42023921	2,7737857444832698	6	-0,0111434814	0,00948701054
2	0	0	0	1	7944,47	3,35468411	3,35513973	2,5110499430447818	6	0,00599065097	0,00842492376
2	0	0	1	1	7950,97	3,28967524	3,29023004	2,2761878805855779	6	0,0215327572	0,00748918159
2	0	0	1	1	7957,48	3,22466636	3,22508025	2,082639633988336	6	0,0356870852	0,00671667978
2	0	0	0	1	7963,98	3,15965748	3,16024065	1,8950362571825536	6	0,0486017838	0,00598877063
2	0	0	0	1	7970,48	3,0946486	3,09528184	1,732739238068465	6	0,0603990667	0,00536331628
2	0	0	1	1	7976,98	3,02963948	3,03007174	1,5844497922807949	6	0,0711815208	0,00480099674
2	0	0	1	1	7983,48	2,96463084	2,96516252	1,427303295892969	6	0,0809672549	0,00423218636
2	0	0	0	1	7989,98	2,89962196	2,90023327	1,2875484243656238	6	0,0897767767	0,00373419072
2	0	0	0	1	7996,48	2,83461285	2,83526349	1,1462386818602707	6	0,0976710171	0,00324988877
2	0	0	0	1	8002,98	2,76960468	2,77011395	1,0072814600849931	6	0,104635544	0,00279028434
2	0	0	1	1	8009,48	2,70459509	2,70514417	0,87146635632961805	6	0,110729896	0,00235744216
2	0	0	1	1	8015,98	2,63958621	2,64016461	0,73108673840761139	6	0,115954548	0,00193018932
2	0	0	0	1	8022,48	2,57457733	2,57503533	0,58664230521147507	6	0,120260738	0,00151062466
2	0	0	0	1	8029,02	2,50916815	2,50959492	0,40727596729993818	6	0,123532526	0,00102209765
2	0	0	1	1	8035,53	2,44415951	2,44467545	0,18234663173401078	6	0,125475094	0,000445778336
2	0	0	0	1	8040,60	2,39335299	2,39398599	-0,027288418263196944	6	0,125881031	6,53280877E-005