File: Experimentelles/Rohdaten/Batterietests/AlteZelle/Studenten_Batterietests/Sonstige/ECLab-Export/S vs Li_02_CV_C02_loop10.mpt
EC-Lab ASCII FILE
Nb header lines : 3
mode	ox/red	error	control changes	counter inc.	time/s	control/V	Ewe/V	<I>/mA	cycle number	(Q-Qo)/C	P/W
2	0	0	1	0	11001,19	2,39555311	2,39630914	-0,014168250374495982	11	0	3,39515063E-005
2	0	0	0	0	11007,86	2,32884359	2,32926631	-0,35493198557136019	11	-0,00119962357	0,000826731091
2	0	0	0	0	11014,51	2,26233459	2,26297522	-0,765117782323312	11	-0,00489134109	0,00173144264
2	0	0	1	0	11021,20	2,19542551	2,19587255	-1,2305242745205778	11	-0,0115518691	0,00270207436
2	0	0	0	0	11027,86	2,12891603	2,12960148	-1,6902118287980557	11	-0,0212671943	0,0035994777
2	0	0	0	0	11034,51	2,06240726	2,0626893	-2,2021314874291456	11	-0,0342047624	0,00454231305
2	0	0	1	0	11041,16	1,99589801	1,99647796	-2,7564372730751802	11	-0,050702475	0,00550316647
2	0	0	1	0	11047,81	1,92938888	1,93005669	-3,3061759111781939	11	-0,0709260628	0,00638110703
2	0	0	0	0	11054,46	1,86287975	1,86337447	-3,7669082085291558	11	-0,0944302604	0,00701916078
2	0	0	0	0	11061,11	1,79637074	1,796893	-4,2319860433538778	11	-0,12110088	0,00760442624
2	0	0	1	0	11067,76	1,72986162	1,7303412	-4,6249904284874502	11	-0,150605991	0,00800281111
2	0	0	0	0	11074,41	1,66335225	1,66397989	-4,9377145183583053	11	-0,182332352	0,00821625721
2	0	0	0	0	11081,06	1,59684324	1,59728825	-5,3020309048394406	11	-0,216400564	0,00846887194
2	0	0	1	0	11087,71	1,53033423	1,5307765	-5,6362372450530458	11	-0,25272575	0,00862781983
2	0	0	1	0	11094,36	1,46382511	1,46403456	-5,9008226220806502	11	-0,291053742	0,00863900781
2	0	0	0	0	11101,02	1,39731598	1,39782333	-6,1786664103468493	11	-0,33121562	0,00863668416
2	0	0	0	0	11107,67	1,33080685	1,331442	-6,4121378660202317	11	-0,373013467	0,00853738934
2	0	0	1	0	11114,32	1,26429772	1,26477003	-6,7762471611301299	11	-0,416771472	0,00857039448
2	0	0	1	0	11120,97	1,19778872	1,19822931	-6,9393144656532544	11	-0,462409377	0,00831488986
2	0	0	0	0	11127,62	1,13127947	1,13177681	-7,1377409199873792	11	-0,509333909	0,00807832927
2	0	0	1	0	11134,27	1,06477034	1,06537533	-7,2869612549742157	11	-0,557293773	0,00776334852
2	0	0	1	0	11140,92	0,998261273	0,9984833	-7,4934721911947123	11	-0,606434405	0,0074821068
2	0	0	0	0	11147,57	0,931752145	0,932231963	-7,6503632018963405	11	-0,656930804	0,00713191321
2	0	0	0	0	11154,22	0,865243077	0,865850568	-7,7644960855444365	11	-0,708130181	0,00672289357
2	0	0	1	0	11160,87	0,79873395	0,799258769	-7,9218582684795072	11	-0,760232747	0,00633161468
2	0	0	1	0	11167,52	0,732224882	0,732596993	-8,0786134873827392	11	-0,813533723	0,00591836777
2	0	0	0	0	11174,18	0,665715754	0,666155517	-8,2004369348287872	11	-0,86767906	0,00546276616
2	0	0	1	0	11180,83	0,599206567	0,599673867	-8,2644116580486298	11	-0,922551095	0,00495595159
2	0	0	1	0	11187,48	0,532697439	0,532941937	-8,4097966526945523	11	-0,978013098	0,00448193355
2	1	0	0	0	11194,08	0,533297539	0,533622861	-8,0569666077693261	11	-1,03310192	0,00429938175
2	1	0	0	0	11200,73	0,599806666	0,600264668	-7,4001268446445606	11	-1,08460665	0,00444203475
2	1	0	1	0	11207,38	0,666315854	0,666846395	-6,8743825778365274	11	-1,13199794	0,00458415737
2	1	0	0	0	11214,03	0,732824922	0,733358085	-6,3582470615704806	11	-1,17603958	0,00466287183
2	1	0	0	0	11220,68	0,799334049	0,799829602	-5,9158664196729626	11	-1,2168541	0,00473168492
2	1	0	1	0	11227,33	0,865842998	0,866561532	-5,5202389247715475	11	-1,25484967	0,00478362665
2	1	0	1	0	11233,98	0,932352245	0,932692587	-5,1082726381719181	11	-1,29014182	0,00476444792
2	1	0	0	0	11240,64	0,998861432	0,999494612	-4,7347645362218246	11	-1,3229183	0,00473237177
2	1	0	0	0	11247,29	1,06537044	1,06598616	-4,3627910539507936	11	-1,35316336	0,00465067476
2	1	0	1	0	11253,94	1,13187957	1,13243771	-4,0619958229362963	11	-1,38143647	0,00459995726
2	1	0	0	0	11260,59	1,1983887	1,19915974	-3,6886829398572448	11	-1,40718818	0,00442332029
2	1	0	0	0	11267,24	1,26489782	1,26541078	-3,3138557958106176	11	-1,43051016	0,00419338886
2	1	0	1	0	11273,89	1,33140683	1,3319726	-3,0171751969804262	11	-1,45156372	0,00401879475
2	1	0	1	0	11280,54	1,39791608	1,39834404	-2,6778552395602038	11	-1,47049665	0,00374456285
2	1	0	0	0	11287,19	1,46442521	1,46483564	-2,3695621192455309	11	-1,48720586	0,00347101898
2	1	0	0	0	11293,84	1,53093421	1,53151751	-2,0886593665927718	11	-1,50201631	0,0031988183
2	1	0	1	0	11300,49	1,59744334	1,597929	-1,8095194250345229	11	-1,51498592	0,00289148348
2	1	0	1	0	11307,14	1,66395223	1,66438091	-1,5440205573753952	11	-1,52612925	0,00256983843
2	1	0	0	0	11313,80	1,7304616	1,73089218	-1,2704924155647586	11	-1,53545856	0,00219908543
2	1	0	1	0	11320,45	1,79697061	1,79753387	-1,015712284793457	11	-1,54305923	0,00182577723
2	1	0	1	0	11327,10	1,86347973	1,8641156	-0,76649833470583053	11	-1,54897439	0,0014288415
2	1	0	0	0	11333,75	1,92998886	1,93080747	-0,53342034077892819	11	-1,5532825	0,00102993194
2	1	0	0	0	11340,43	1,99679804	1,99723911	-0,30212554281267149	11	-1,55607116	0,000603416935
2	1	0	1	0	11347,08	2,06330729	2,06371045	-0,075690451039311936	11	-1,55731606	0,000156203168
2	1	0	0	0	11353,89	2,13141656	2,13193464	0,1466707420768215	11	-1,5570693	0,000312692428
2	1	0	0	0	11360,54	2,19792557	2,19853663	0,35761847455675302	11	-1,55538678	0,000786237302
2	1	0	1	0	11367,19	2,26443481	2,26500797	0,56604905224715821	11	-1,55231249	0,00128210557
2	1	0	1	0	11373,84	2,33094382	2,33137941	0,78037953392292045	11	-1,5478344	0,00181936077
2	1	0	0	0	11380,49	2,39745283	2,39796114	0,99553963976601523	11	-1,54193103	0,00238726544
2	1	0	0	0	11387,19	2,46436214	2,4650836	1,211162075400349	11	-1,53454769	0,00298561575
2	1	0	1	0	11393,84	2,53087115	2,53143501	1,4282694325471894	11	-1,52577746	0,00361557119
2	1	0	0	0	11400,49	2,5973804	2,59779644	1,6486883747080867	11	-1,51556051	0,00428295694
2	1	0	0	0	11407,14	2,66388988	2,6644485	1,8709415557483808	11	-1,50382209	0,00498502748
2	1	0	1	0	11413,79	2,73039865	2,73077989	2,1248505307982307	11	-1,49051416	0,00580249913
2	1	0	1	0	11420,44	2,79690766	2,79746151	2,3824088169882672	11	-1,47552979	0,00666469708
2	1	0	0	0	11427,09	2,86341667	2,86405325	2,6277635705967766	11	-1,45890379	0,00752605498
2	1	0	0	0	11433,74	2,92992592	2,93030453	2,8713907810548954	11	-1,44063139	0,00841404963
2	1	0	1	0	11440,39	2,99643517	2,99678612	3,1494363745053562	11	-1,42065644	0,00943818688
2	1	0	1	0	11447,04	3,06294298	3,06338573	3,4290037338629971	11	-1,39880109	0,0105043612
2	1	0	0	0	11453,69	3,12945318	3,12990952	3,6755576257904358	11	-1,37518287	0,011504163
2	1	0	1	0	11460,35	3,19596219	3,19649076	4,0048588017622534	11	-1,34967077	0,0128014944
2	1	0	1	0	11467,00	3,2624712	3,26301265	4,4253443243602816	11	-1,32179046	0,0144399544
2	1	0	0	0	11473,65	3,32898068	3,32944417	4,7062773903211091	11	-1,29146397	0,0156692881
2	1	0	0	0	11480,30	3,39548945	3,39596605	5,1920387186109875	11	-1,25813234	0,0176319871
2	1	0	1	0	11486,95	3,46199894	3,46269774	5,6340891420841216	11	-1,22199821	0,0195091479
2	1	0	1	0	11493,60	3,52850652	3,5288682	6,0358244270669414	11	-1,18306005	0,0212996285
2	1	0	0	0	11500,25	3,59501719	3,59555101	6,4035496786236582	11	-1,14161682	0,0230242889
2	1	0	1	0	11506,90	3,6615262	3,66211271	6,9893153756856922	11	-1,09707713	0,0255956613
2	1	0	1	0	11513,55	3,72803545	3,72839379	7,4740249564250406	11	-1,04894686	0,0278661083
2	1	0	0	0	11520,20	3,79454446	3,79505587	7,9419245099027763	11	-0,997768104	0,0301400479
2	1	0	0	0	11526,85	3,86105347	3,86171746	8,5344830726583962	11	-0,943266988	0,0329577625
2	1	0	1	0	11533,51	3,92756271	3,92805886	9,0950110480189325	11	-0,884648144	0,0357257389
2	1	0	1	0	11540,16	3,99407268	3,99467134	9,7481441475028467	11	-0,822688758	0,0389406309
2	1	0	0	0	11546,85	4,0609808	4,06150293	10,147990042964608	11	-0,755908906	0,0412160903
2	1	0	1	0	11553,50	4,12749004	4,12803411	11,342402604718998	11	-0,684999347	0,0468218252
2	1	0	1	0	11560,15	4,19399929	4,19435549	12,061788332958984	11	-0,606829166	0,0505914278
2	0	0	1	1	11566,73	4,1401906	4,14084005	11,404497878317373	11	-0,529211104	0,0472242013
2	0	0	1	1	11573,38	4,07368279	4,0740099	10,423437831302466	11	-0,456909359	0,0424651876
2	0	0	0	1	11580,03	4,00717354	4,00765848	9,4366514409582016	11	-0,39019838	0,0378188752
2	0	0	0	1	11586,68	3,94066453	3,94106674	8,44072649379568	11	-0,330550969	0,0332654677
2	0	0	1	1	11593,33	3,87415528	3,87463522	7,260175908605248	11	-0,278619885	0,0281305332
2	0	0	1	1	11599,98	3,80764627	3,8080337	6,163200269142784	11	-0,233895093	0,0234696735
2	0	0	0	1	11606,64	3,74113727	3,74146199	5,2820059557755597	11	-0,195559338	0,0197624248
2	0	0	0	1	11613,33	3,67422867	3,67479157	4,6871767394762893	11	-0,162217304	0,0172243975
2	0	0	1	1	11619,98	3,60771894	3,60840845	4,1184387318789958	11	-0,133025944	0,0148610091
2	0	0	0	1	11626,63	3,54120946	3,54172659	3,6593786428371968	11	-0,107198752	0,0129605187
2	0	0	0	1	11633,28	3,47470069	3,47513509	3,2355760745704032	11	-0,0843296796	0,0112440642
2	0	0	1	1	11639,93	3,4081912	3,40866327	2,8316097768644432	11	-0,0642013699	0,00965200458
2	0	0	1	1	11646,58	3,3416822	3,34253216	2,530478198081248	11	-0,0464192927	0,00845820457
2	0	0	0	1	11653,23	3,27517295	3,27547002	2,1871632753560845	11	-0,0305053834	0,00716398796
2	0	0	0	1	11659,88	3,20866466	3,20898914	1,9790583886530077	11	-0,0166561753	0,00635077711
2	0	0	1	1	11666,53	3,14215493	3,14268684	1,770240064710375	11	-0,00417955127	0,00556331035
2	0	0	0	1	11673,19	3,07564592	3,07631564	1,5875348641226595	11	0,00690146862	0,00488375826
2	0	0	0	1	11679,84	3,00913692	3,00946355	1,4478631255527325	11	0,0169833153	0,00435729139
2	0	0	1	1	11686,49	2,94262767	2,94305205	1,3033763986701742	11	0,0261080936	0,00383590464
2	0	0	1	1	11693,14	2,87611866	2,87669063	1,1547771546368778	11	0,0342764221	0,00332193659
2	0	0	0	1	11699,79	2,80960965	2,81019926	1,0144442444046326	11	0,0414929353	0,00285079051
2	0	0	0	1	11706,44	2,74310017	2,74360752	0,8752704073364512	11	0,047771994	0,00240139849
2	0	0	1	1	11713,09	2,6765914	2,67700553	0,73832672027250189	11	0,0531429797	0,00197650469
2	0	0	0	1	11719,74	2,61008215	2,61062407	0,60897537010411366	11	0,0576669089	0,00158980582
2	0	0	0	1	11726,43	2,54317307	2,54363179	0,43945993358890246	11	0,0611810237	0,00111782423
2	0	0	1	1	11733,08	2,47666407	2,47738075	0,25311544413367914	11	0,0634924844	0,000627063331
2	0	0	1	1	11739,77	2,40975475	2,41037846	0,040913027662706272	11	0,064496547	9,86158775E-005
2	0	0	0	1	11741,15	2,39595318	2,39638925	-0,0071681684348732237	11	0,0645197034	1,7177721E-005