File: Experimentelles/Rohdaten/Batterietests/AlteZelle/Studenten_Batterietests/Sonstige/ECLab-Export/S vs Li_02_CV_C02_loop8.mpt
EC-Lab ASCII FILE
Nb header lines : 3
mode	ox/red	error	control changes	counter inc.	time/s	control/V	Ewe/V	<I>/mA	cycle number	(Q-Qo)/C	P/W
2	0	0	1	0	9520,93	2,39515305	2,39550805	-0,004158166702836752	9	0	9,96092149E-006
2	0	0	0	0	9527,54	2,32904363	2,32939649	-0,28850162510449805	9	-0,000939432823	0,000672034686
2	0	0	0	0	9534,09	2,26353455	2,26394653	-0,62348487274721267	9	-0,00390192727	0,00141153636
2	0	0	1	0	9540,67	2,19772553	2,19827604	-1,0075416527688485	9	-0,00925591588	0,00221485458
2	0	0	1	0	9547,22	2,13221645	2,1328361	-1,392914771102367	9	-0,0171111114	0,00297085894
2	0	0	0	0	9553,77	2,06670761	2,06733584	-1,8060052053382022	9	-0,0275836792	0,00373361935
2	0	0	0	0	9560,32	2,00119853	2,00181556	-2,2620634151001725	9	-0,040889591	0,00452823378
2	0	0	1	0	9566,87	1,93568969	1,93618488	-2,7583588783939702	9	-0,0574037023	0,00534069259
2	0	0	1	0	9573,43	1,87018085	1,87067473	-3,170378996680185	9	-0,0768682137	0,00593074784
2	0	0	0	0	9579,98	1,80467176	1,80522454	-3,5631803112725466	9	-0,0989505276	0,00643234048
2	0	0	0	0	9586,53	1,73916268	1,73967433	-3,9070810352762637	9	-0,123489447	0,00679704873
2	0	0	1	0	9593,08	1,67365372	1,67421412	-4,1995385686556544	9	-0,150089368	0,00703092664
2	0	0	1	0	9599,63	1,60814476	1,60859346	-4,4448293298482893	9	-0,178311408	0,00714992359
2	0	0	0	0	9606,18	1,5426358	1,54338384	-4,7664502598345421	9	-0,208292961	0,00735646207
2	0	0	0	0	9612,73	1,47712696	1,47752333	-5,0373324540754042	9	-0,240452498	0,00744277611
2	0	0	1	0	9619,28	1,41161788	1,41210306	-5,3006802685558797	9	-0,274275035	0,00748510659
2	0	0	1	0	9625,83	1,34610891	1,34640253	-5,5439525345961299	9	-0,309821367	0,00746439165
2	0	0	0	0	9632,38	1,28059995	1,28104258	-5,7125061862170765	9	-0,346857429	0,00731796352
2	0	0	0	0	9638,93	1,21509087	1,2156024	-5,8565198418994842	9	-0,384767801	0,00711919973
2	0	0	1	0	9645,49	1,14958191	1,1502223	-5,9661704401175373	9	-0,423619539	0,00686242245
2	0	0	1	0	9652,04	1,08407295	1,08462191	-6,1145254870256026	9	-0,463276178	0,00663194852
2	0	0	0	0	9658,59	1,01856411	1,0188514	-6,3008359422286451	9	-0,503918231	0,00641961535
2	0	0	0	0	9665,14	0,953055024	0,953641534	-6,4635616441567757	9	-0,545682371	0,00616392074
2	0	0	1	0	9671,69	0,887546122	0,88821137	-6,6230888043840602	9	-0,588569999	0,00588270277
2	0	0	1	0	9678,24	0,82203716	0,822681069	-6,7984826589624128	9	-0,632429838	0,00559298322
2	0	0	0	0	9684,79	0,756528139	0,756730199	-7,0246599316597274	9	-0,677734017	0,00531577226
2	0	0	0	0	9691,34	0,691019177	0,691510439	-7,1448227713505613	9	-0,724155247	0,00494071934
2	0	0	1	0	9697,89	0,625510216	0,625950098	-7,3006629571318656	9	-0,771570683	0,00456985086
2	0	0	1	0	9704,44	0,560001194	0,560389638	-7,4350402926405222	9	-0,819892108	0,00416651974
2	1	0	0	0	9710,93	0,504793644	0,505283892	-7,4834958190719475	9	-0,868534207	0,00378128979
2	1	0	0	0	9717,48	0,57030338	0,570763767	-6,8344385489717747	9	-0,91542381	0,00390084996
2	1	0	1	0	9724,03	0,635811567	0,636494577	-6,3026780287424845	9	-0,958359361	0,0040116203
2	1	0	1	0	9730,58	0,70132035	0,701794267	-5,8885378394870426	9	-0,998282433	0,00413254229
2	1	0	0	0	9737,13	0,76682955	0,767304778	-5,4689003738264288	9	-1,03541124	0,00419631321
2	1	0	0	0	9743,68	0,832338512	0,832865059	-5,1039041367669856	9	-1,07002795	0,00425086357
2	1	0	1	0	9750,23	0,897847533	0,898455441	-4,7192540280520928	9	-1,10223949	0,00424003927
2	1	0	1	0	9756,78	0,963357151	0,963777423	-4,3444666319462829	9	-1,13188732	0,0041870987
2	1	0	0	0	9763,33	1,02886546	1,02944589	-3,9947926190992218	9	-1,15925646	0,00411242293
2	1	0	0	0	9769,88	1,09437442	1,09517646	-3,681441854685545	9	-1,18439901	0,0040318286
2	1	0	1	0	9776,43	1,15988338	1,16047633	-3,3726751804351808	9	-1,20743883	0,00391390966
2	1	0	1	0	9782,98	1,22539127	1,2258538	-3,0809486031026931	9	-1,22864342	0,00377679267
2	1	0	0	0	9789,54	1,29090142	1,29141676	-2,8082205876708032	9	-1,24796581	0,00362658314
2	1	0	0	0	9796,09	1,35641038	1,35697722	-2,5383514817804134	9	-1,26547027	0,00344448513
2	1	0	1	0	9802,64	1,42191935	1,42251742	-2,2759344888230189	9	-1,28122413	0,00323755643
2	1	0	1	0	9809,19	1,48742831	1,48786736	-2,0266082839419434	9	-1,29533827	0,00301532424
2	1	0	0	0	9815,74	1,55293727	1,55368805	-1,7831279753396957	9	-1,30781889	0,00277042459
2	1	0	0	0	9822,29	1,61844611	1,61895788	-1,551970050049327	9	-1,31873071	0,0025125742
2	1	0	1	0	9828,84	1,68395519	1,68455839	-1,3132143182059152	9	-1,32807493	0,00221218611
2	1	0	1	0	9835,39	1,74946427	1,75004852	-1,082549430740377	9	-1,33590543	0,00189451408
2	1	0	0	0	9841,94	1,81497312	1,81550884	-0,86243246030062797	9	-1,34226978	0,00156575372
2	1	0	0	0	9848,49	1,8804822	1,8810389	-0,65076170473670029	9	-1,34720421	0,00122410804
2	1	0	1	0	9855,08	1,94639134	1,94691968	-0,44110185978934259	9	-1,35079277	0,000858789892
2	1	0	1	0	9861,64	2,01190019	2,01245022	-0,24270937972081174	9	-1,35303283	0,000488440564
2	1	0	0	0	9868,23	2,07780933	2,07840109	-0,047341618357071014	9	-1,35397804	9,83948703E-005
2	1	0	1	0	9874,90	2,14451814	2,14491272	0,14075335705031989	9	-1,35366297	0,000301903667
2	1	0	1	0	9881,45	2,21002746	2,21058297	0,32538374226230003	9	-1,35213804	0,000719287782
2	1	0	0	0	9888,00	2,27553606	2,27607322	0,50849687137330598	9	-1,34940147	0,0011573761
2	1	0	0	0	9894,55	2,34104514	2,34148335	0,69553303578868646	9	-1,34546649	0,00162857899
2	1	0	1	0	9901,10	2,4065547	2,40691376	0,87705391207028557	9	-1,34029996	0,00211099302
2	1	0	1	0	9907,69	2,47246361	2,47286415	1,0718115217362829	9	-1,33387411	0,0026504444
2	1	0	0	0	9914,24	2,53797269	2,53851485	1,2805827501558725	9	-1,32615757	0,00325077842
2	1	0	0	0	9920,79	2,60348129	2,60364437	1,4741974966600547	9	-1,31713986	0,00383828604
2	1	0	1	0	9927,34	2,66899014	2,66965532	1,6780280657112563	9	-1,30679679	0,00447975658
2	1	0	1	0	9933,90	2,73449922	2,73488522	1,9025440781066826	9	-1,29508293	0,00520323962
2	1	0	0	0	9940,45	2,80000806	2,80057573	2,1494007439663002	9	-1,28181183	0,00601955969
2	1	0	0	0	9947,00	2,86551714	2,86610627	2,394658837467432	9	-1,26690567	0,00686334679
2	1	0	1	0	9953,55	2,9310267	2,93163729	2,6253986564466061	9	-1,25038922	0,00769671658
2	1	0	1	0	9960,10	2,9965353	2,9970665	2,8603934378673584	9	-1,23241711	0,00857278891
2	1	0	0	0	9966,65	3,06204414	3,06240654	3,1394533365964749	9	-1,21280575	0,00961428229
2	1	0	0	0	9973,20	3,12755275	3,12788653	3,3514036300281658	9	-1,19151115	0,0104828104
2	1	0	0	0	9979,75	3,19306183	3,19353628	3,6002084818225094	9	-1,16869295	0,011497396
2	1	0	1	0	9986,30	3,25857091	3,25907707	4,0172987667222771	9	-1,14367056	0,0130926864
2	1	0	0	0	9992,85	3,32407975	3,3245573	4,0141472580532122	9	-1,11666489	0,013345263
2	1	0	0	0	9999,40	3,38958907	3,39005756	4,449399506052327	9	-1,08880925	0,0150837209
2	1	0	1	0	10005,96	3,45509863	3,45555758	4,7268078964546874	9	-1,05888534	0,016333757
2	1	0	1	0	10012,51	3,52060676	3,52122855	5,0882401838898624	9	-1,02680683	0,0179168563
2	1	0	1	0	10019,06	3,5861156	3,58648801	5,7035990279431027	9	-0,991456687	0,0204558894
2	1	0	0	0	10025,61	3,65162492	3,65218878	6,0830215873817651	9	-0,952992558	0,0222163424
2	1	0	0	0	10032,16	3,71713257	3,7175684	6,1029868370424051	9	-0,913554609	0,0226882715
2	1	0	1	0	10038,71	3,78264284	3,78309917	6,6361696844299443	9	-0,871814549	0,0251052883
2	1	0	0	0	10045,26	3,8481524	3,84867072	7,1585323046942899	9	-0,826867998	0,0275508333
2	1	0	0	0	10051,81	3,91366053	3,91421986	7,6606895253062246	9	-0,778154433	0,0299856234
2	1	0	0	0	10058,36	3,9791708	3,97982979	8,5381023289908454	9	-0,725175083	0,0339801945
2	1	0	1	0	10064,91	4,04467869	4,04522038	8,8699887146552218	9	-0,668925822	0,0358810574
2	1	0	0	0	10071,50	4,11058807	4,11107159	10,593414361648278	9	-0,603807747	0,0435502864
2	1	0	0	0	10078,06	4,17609692	4,17673111	11,619928392271211	9	-0,530277014	0,0485333167
2	0	0	1	1	10084,53	4,15919447	4,159688	11,712223947048174	9	-0,45445323	0,0487191975
2	0	0	0	1	10091,08	4,09368515	4,09428692	10,572885508696562	9	-0,38167873	0,0432884283
2	0	0	0	1	10097,63	4,02817678	4,02841711	9,3853581920265869	9	-0,316359758	0,0378081389
2	0	0	1	1	10104,18	3,96266723	3,96308708	8,268416404724137	9	-0,258826017	0,0327684544
2	0	0	1	1	10110,73	3,89715862	3,89768696	7,2400801827510298	9	-0,208037943	0,0282195657
2	0	0	0	1	10117,28	3,83164954	3,83217692	6,3340202147762099	9	-0,163544327	0,0242730863
2	0	0	0	1	10123,83	3,7661407	3,76656651	5,5195432466765267	9	-0,124589108	0,0207897276
2	0	0	1	1	10130,42	3,70023131	3,70070553	4,7188108861446381	9	-0,0911107883	0,0174629297
2	0	0	1	1	10136,97	3,63472247	3,63511515	4,1314835473895053	9	-0,062213935	0,0150184184
2	0	0	0	1	10143,53	3,56921363	3,56974506	3,5945200386146611	9	-0,0370857902	0,0128315203
2	0	0	0	1	10150,08	3,50370431	3,5044055	3,2351232096552704	9	-0,0147675453	0,0113371834
2	0	0	1	1	10156,63	3,43819547	3,43869472	2,913874619950848	9	0,0053897528	0,0100199254
2	0	0	1	1	10163,18	3,37268662	3,37313437	2,5939596208433357	9	0,0232588165	0,00874977466
2	0	0	0	1	10169,73	3,30717778	3,30766439	2,3087826427072288	9	0,0393493101	0,00763667794
2	0	0	0	1	10176,28	3,24166846	3,24206376	2,1168939440200704	9	0,0538442843	0,00686310511
2	0	0	1	1	10182,83	3,17615962	3,17667365	1,935821146393815	9	0,0671049431	0,0061494722
2	0	0	1	1	10189,38	3,11065102	3,11117363	1,7681249330441203	9	0,0792305097	0,00550094387
2	0	0	0	1	10195,93	3,04514194	3,0456233	1,6128232919921466	9	0,0903024226	0,0049120523
2	0	0	0	1	10202,48	2,97963262	2,97994256	1,4640387346347165	9	0,100376837	0,00436275126
2	0	0	1	1	10209,03	2,91412377	2,91459274	1,3197956507404669	9	0,109491304	0,00384666678
2	0	0	1	1	10215,58	2,84861493	2,84904242	1,175679197224473	9	0,117666334	0,00334955985
2	0	0	0	1	10222,14	2,78310585	2,78378248	1,0302573464189973	9	0,124887034	0,00286801229
2	0	0	0	1	10228,69	2,71759701	2,71809196	0,89388896400729395	9	0,131171897	0,00242967252
2	0	0	1	1	10235,24	2,65208817	2,65273213	0,74803916613260851	9	0,136539951	0,00198434759
2	0	0	1	1	10241,79	2,58657885	2,5870316	0,5951104150153696	9	0,140943214	0,00153956946
2	0	0	0	1	10248,38	2,52066994	2,52123094	0,42021439224481408	9	0,144302145	0,00105945754
2	0	0	0	1	10254,93	2,45516086	2,45580077	0,21672629200232496	9	0,14641802	0,000532236591
2	0	0	0	1	10260,93	2,39515305	2,39542794	-0,011985378085889592	9	0,147051319	2,87101102E-005