File: Experimentelles/Rohdaten/Batterietests/AlteZelle/Studenten_Batterietests/Sonstige/ECLab-Export/S vs Li_02_CV_C02_loop1.mpt
EC-Lab ASCII FILE
Nb header lines : 3
mode	ox/red	error	control changes	counter inc.	time/s	control/V	Ewe/V	<I>/mA	cycle number	(Q-Qo)/C	P/W
2	0	0	1	0	4340,20	2,39045238	2,39110208	-0,072990015149116518	2	0	0,000174526576
2	0	0	0	0	4346,72	2,325243	2,32545114	-0,61249031530072525	2	-0,00215717917	0,00142431632
2	0	0	0	0	4353,25	2,25993419	2,26057172	-1,2777938010791949	2	-0,00826891046	0,00288854446
2	0	0	1	0	4359,75	2,19492507	2,19548202	-2,0094081442803146	2	-0,0189516339	0,00441161962
2	0	0	1	0	4366,25	2,12991619	2,13046241	-2,7575113407025818	2	-0,0344389193	0,00587477442
2	0	0	0	0	4372,75	2,06490755	2,06543303	-3,5391737557947635	2	-0,0548821054	0,00730992621
2	0	0	0	0	4379,25	1,99989855	2,00036359	-4,3281992884973734	2	-0,0804777369	0,00865797233
2	0	0	1	0	4385,75	1,93488967	1,93518353	-5,0644427140553818	2	-0,111149661	0,00980062596
2	0	0	1	0	4392,25	1,86988068	1,87053454	-5,6550560370087552	2	-0,145704493	0,0105779776
2	0	0	0	0	4398,75	1,8048718	1,80530465	-6,337825020154327	2	-0,184716508	0,0114417048
2	0	0	0	0	4405,25	1,73986292	1,74044538	-6,9281767234206336	2	-0,227824181	0,0120581128
2	0	0	0	0	4411,76	1,67485392	1,67525554	-7,4591896037260595	2	-0,274633914	0,0124960486
2	0	0	1	0	4418,26	1,60984504	1,61042619	-7,937758199870615	2	-0,324693561	0,0127831735
2	0	0	1	0	4424,76	1,54483616	1,54523647	-8,4196253170569869	2	-0,377918243	0,0130103119
2	0	0	0	0	4431,26	1,47982717	1,48024702	-8,8437989751498099	2	-0,433956057	0,0130910072
2	0	0	0	0	4437,76	1,41481841	1,4153775	-9,199965265889943	2	-0,492686242	0,0130214235
2	0	0	1	0	4444,26	1,34980929	1,35032797	-9,609733723104	2	-0,55369693	0,0129762925
2	0	0	1	0	4450,76	1,28480053	1,28538859	-9,951107680797577	2	-0,617321491	0,0127910404
2	0	0	0	0	4457,29	1,2194916	1,21990836	-10,295376194020122	2	-0,683285654	0,0125594158
2	0	0	0	0	4463,79	1,1544826	1,15498888	-10,372482240200014	2	-0,750401735	0,0119801015
2	0	0	1	0	4470,29	1,08947361	1,08992922	-10,536166866620392	2	-0,818379104	0,0114836758
2	0	0	1	0	4476,79	1,02446496	1,02503979	-10,634550983707086	2	-0,887257099	0,0109008383
2	0	0	0	0	4483,30	0,959455967	0,95998019	-10,748377042512146	2	-0,956778526	0,010318229
2	0	0	0	0	4489,80	0,894447088	0,894930542	-10,786729757984499	2	-1,02695966	0,00965337362
2	0	0	0	0	4496,30	0,82943821	0,829870999	-10,8112946674228	2	-1,09722114	0,00897197984
2	0	0	1	0	4502,80	0,764429271	0,764941514	-10,805884361267106	2	-1,16740119	0,00826586969
2	0	0	1	0	4509,30	0,699420333	0,699901938	-10,826606142024246	2	-1,23774171	0,0075775627
2	0	0	0	0	4515,80	0,634411395	0,634832323	-10,7551189661026	2	-1,30793321	0,00682769716
2	0	0	0	0	4522,30	0,569402516	0,569962919	-10,637250858048595	2	-1,37756526	0,00606283871
2	0	0	1	0	4528,80	0,504393637	0,504833221	-10,485692034165069	2	-1,44625843	0,00529352576
2	1	0	0	0	4535,22	0,559801161	0,560379684	-9,4640167405208192	2	-1,51015842	0,00530344248
2	1	0	0	0	4541,72	0,624810159	0,625389278	-8,8056872189044954	2	-1,56935513	0,00550698256
2	1	0	1	0	4548,22	0,689818978	0,690428853	-8,3153971508145114	2	-1,62497604	0,00574119017
2	1	0	1	0	4554,73	0,754827917	0,75527823	-7,8793454344073997	2	-1,67756963	0,00595109817
2	1	0	0	0	4561,23	0,819836795	0,820197582	-7,4809339096148621	2	-1,72744787	0,00613584369
2	1	0	0	0	4567,73	0,884845734	0,885547698	-7,1014453619718835	2	-1,7748245	0,00628866861
2	1	0	1	0	4574,23	0,949854672	0,95032686	-6,7142149806022643	2	-1,81972063	0,00638069864
2	1	0	1	0	4580,73	1,01486349	1,01547658	-6,3088966508706509	2	-1,86207306	0,00640653679
2	1	0	0	0	4587,23	1,07987225	1,08034599	-5,9050618124504832	2	-1,90181017	0,00637950981
2	1	0	0	0	4593,73	1,14488125	1,14552581	-5,4811250194907187	2	-1,93887818	0,00627877004
2	1	0	1	0	4600,23	1,20989025	1,21049523	-5,0352969976762976	2	-1,97307682	0,00609520311
2	1	0	1	0	4606,77	1,27529919	1,27586532	-4,6158237295846086	2	-2,00465608	0,00588916941
2	1	0	0	0	4613,27	1,34030819	1,34078479	-4,1840511187911174	2	-2,03323412	0,00560991187
2	1	0	0	0	4619,77	1,40531695	1,40570438	-3,7472257850070886	2	-2,05900383	0,00526749156
2	1	0	1	0	4626,28	1,47032595	1,47095406	-3,3458014540374208	2	-2,08205152	0,00492152013
2	1	0	1	0	4632,78	1,53533494	1,53578341	-2,9530849549919418	2	-2,1025188	0,00453529879
2	1	0	1	0	4639,28	1,6003437	1,60084307	-2,5706291515380144	2	-2,12046146	0,00411517406
2	1	0	0	0	4645,78	1,66535258	1,66593277	-2,2047376961757728	2	-2,13597918	0,00367294485
2	1	0	0	0	4652,28	1,73036158	1,73058164	-1,847655121857919	2	-2,14915991	0,00319751794
2	1	0	1	0	4658,78	1,79537046	1,79589164	-1,4901451819265894	2	-2,16001892	0,00267613935
2	1	0	1	0	4665,28	1,86037934	1,86087132	-1,14628508749108	2	-2,16859031	0,00213308912
2	1	0	0	0	4671,78	1,92538834	1,92591095	-0,80160622733334733	2	-2,17490911	0,00154382223
2	1	0	0	0	4678,32	1,99079728	1,99126089	-0,46640427550300954	2	-2,17904878	0,000928732567
2	1	0	1	0	4684,82	2,05580616	2,05658078	-0,14248184689010146	2	-2,18101811	0,000293025427
2	1	0	1	0	4691,40	2,12161517	2,12206101	0,17387047945521728	2	-2,1809063	0,000368963752
2	1	0	0	0	4697,91	2,18662405	2,18682027	0,48030794660250285	2	-2,1787746	0,00105034711
2	1	0	0	0	4704,41	2,25163293	2,2521801	0,78162609040737152	2	-2,17466903	0,00176036276
2	1	0	1	0	4710,94	2,31694198	2,31725979	1,0766585633779542	2	-2,16859341	0,00249489769
2	1	0	1	0	4717,44	2,38195109	2,38233972	1,3609180434917426	2	-2,16065621	0,00324216904
2	1	0	0	0	4723,94	2,44696045	2,44744921	1,6531276047835702	2	-2,15086651	0,00404594606
2	1	0	0	0	4730,44	2,51196861	2,51236892	1,957235454271231	2	-2,13912439	0,00491729751
2	1	0	0	0	4736,94	2,57697701	2,57743812	2,2875051393446294	2	-2,12533259	0,00589590287
2	1	0	1	0	4743,44	2,64198661	2,6425581	2,6154628669222077	2	-2,1094265	0,00691151246
2	1	0	1	0	4749,94	2,70699525	2,70747781	2,9489483429739955	2	-2,09134364	0,0079842126
2	1	0	0	0	4756,44	2,77200437	2,77243686	3,2462169056137286	2	-2,07121348	0,00899993163
2	1	0	0	0	4762,94	2,83701324	2,83754659	3,5881875927249498	2	-2,04902196	0,0101816496
2	1	0	1	0	4769,45	2,90202212	2,90268636	3,8884800958136621	2	-2,02473831	0,0112870382
2	1	0	1	0	4775,95	2,967031	2,96741557	4,2398234220842566	2	-1,99830079	0,0125813177
2	1	0	0	0	4782,45	3,03204012	3,03238511	4,5930171869695187	2	-1,9695735	0,0139277969
2	1	0	0	0	4788,95	3,09704876	3,09772515	4,9720116766790598	2	-1,93849218	0,0154019259
2	1	0	1	0	4795,45	3,16205788	3,16247439	5,4245556431511942	2	-1,90471721	0,0171550177
2	1	0	1	0	4801,95	3,22706652	3,22749376	5,7775664863486925	2	-1,86834097	0,0186470598
2	1	0	0	0	4808,45	3,2920754	3,29250312	6,1417236179113421	2	-1,82961702	0,020221645
2	1	0	0	0	4814,95	3,35708427	3,35756278	6,5689779669046259	2	-1,78830504	0,0220557563
2	1	0	0	0	4821,45	3,42209339	3,42243433	7,2267654491723904	2	-1,74348199	0,0247331299
2	1	0	1	0	4827,95	3,48710227	3,48776221	7,9074069882432666	2	-1,69401586	0,0275791548
2	1	0	1	0	4834,45	3,55211115	3,55252171	8,5452993412812506	2	-1,64068282	0,0303573608
2	1	0	0	0	4840,95	3,61712003	3,6175313	9,0228725721438541	2	-1,5831213	0,0326405242
2	1	0	0	0	4847,50	3,68252897	3,68300152	9,924184692402711	2	-1,5212158	0,0365507863
2	1	0	1	0	4854,00	3,74753809	3,7478807	10,666084532936395	2	-1,4544524	0,039975211
2	1	0	1	0	4860,50	3,81254697	3,81315041	11,529239927728952	2	-1,38209093	0,0439627245
2	1	0	0	0	4867,00	3,87755585	3,87812996	12,452520377934016	2	-1,30287397	0,0482924916
2	1	0	0	0	4873,50	3,94256473	3,9429996	13,328192030390085	2	-1,21922159	0,0525530577
2	1	0	1	0	4880,00	4,0075736	4,00806952	14,229699527223915	2	-1,12955308	0,0570336245
2	1	0	1	0	4886,50	4,07258272	4,07301855	14,908497263987869	2	-1,03492868	0,0607225858
2	1	0	0	0	4893,00	4,13759136	4,13833904	15,378876045346259	2	-0,935989916	0,063643001
2	0	0	0	1	4899,42	4,19819975	4,19879103	16,442489415407152	2	-0,833289027	0,0690385774
2	0	0	1	1	4905,92	4,13319063	4,13360167	15,08396382133168	2	-0,730390966	0,0623510964
2	0	0	1	1	4912,43	4,06818199	4,06861258	13,579255253076554	2	-0,637058556	0,0552487299
2	0	0	0	1	4918,93	4,00317335	4,00364351	12,423927617669051	2	-0,551840901	0,0497409776
2	0	0	0	1	4925,43	3,938164	3,93849349	11,282655440270901	2	-0,474716187	0,0444366634
2	0	0	1	1	4931,93	3,87315512	3,87366414	10,13579954226816	2	-0,40494597	0,0392626822
2	0	0	1	1	4938,43	3,80814624	3,80865431	9,0824632073442112	2	-0,342293799	0,0345919617
2	0	0	1	1	4944,93	3,7431376	3,74332356	8,0623868496607821	2	-0,286621779	0,0301801227
2	0	0	0	1	4951,43	3,67812848	3,67843509	7,2225586300094733	2	-0,236587524	0,0265677124
2	0	0	0	1	4957,93	3,61311936	3,61389613	6,2497019457320243	2	-0,192554548	0,0225857738
2	0	0	1	1	4964,43	3,54811049	3,54837584	5,468869719654311	2	-0,154630214	0,0194056053
2	0	0	1	1	4970,97	3,48270154	3,4832561	4,788817511250585	2	-0,121176787	0,0166806784
2	0	0	0	1	4977,47	3,4176929	3,41811657	4,2577236245075622	2	-0,091789946	0,014553396
2	0	0	0	1	4983,97	3,35268402	3,35333753	3,7738660797476768	2	-0,0657448545	0,0126550468
2	0	0	1	1	4990,48	3,28767467	3,28820753	3,3370835048456941	2	-0,0426369235	0,0109730233
2	0	0	1	1	4996,98	3,22266579	3,22351813	2,9838991171369946	2	-0,0221222751	0,00961865298
2	0	0	0	1	5003,48	3,15765691	3,15823841	2,6733016489694384	2	-0,00373933674	0,00844292436
2	0	0	0	1	5009,98	3,09264827	3,0931685	2,3920600290099782	2	0,0126926368	0,00739904493
2	0	0	1	1	5016,48	3,02763963	3,0282495	2,1456188367058858	2	0,0274313241	0,00649746927
2	0	0	1	1	5022,98	2,96263051	2,96311975	1,9203006960451584	2	0,0406323262	0,00569008105
2	0	0	0	1	5029,48	2,89762092	2,89821029	1,7045822676776582	2	0,0523903519	0,00494023785
2	0	0	0	1	5035,98	2,83261275	2,83311057	1,5007852225874832	2	0,0627990067	0,00425189035
2	0	0	0	1	5042,48	2,76760364	2,7681911	1,3074244263892382	2	0,0719160885	0,00361920055
2	0	0	1	1	5048,98	2,70259476	2,70312142	1,1196152071158085	2	0,0797972456	0,00302645587
2	0	0	1	1	5055,48	2,63758612	2,63802171	0,92746738127122086	2	0,0864460394	0,00244667917
2	0	0	0	1	5061,99	2,572577	2,57309246	0,72408213171487117	2	0,0918209925	0,00186313025
2	0	0	0	1	5068,53	2,50716805	2,50778246	0,49068899157767731	2	0,0958210975	0,00123054127
2	0	0	1	1	5075,03	2,44215894	2,4427228	0,21150990629879107	2	0,0981403887	0,000516660046
2	0	0	1	1	5080,16	2,39075255	2,39150262	-0,06732798164541065	2	0,0985334292	0,00016101505