File: Experimentelles/Rohdaten/Batterietests/AlteZelle/Studenten_Batterietests/Sonstige/ECLab-Export/S vs Li_05_GCPL_C02_loop9.mpt
EC-Lab ASCII FILE
Nb header lines : 3
mode	ox/red	error	control changes	Ns changes	counter inc.	Ns	time/s	control/V/mA	Ewe/V	dq/mA.h	<I>/mA	P/W	(Q-Qo)/mA.h	x	Capacity/mA.h
1	0	0	1	1	0	1	598530,59	-0,100000001	2,72797465	0	0	0	0	0	0
1	0	0	1	0	0	1	599630,61	-0,100000001	2,18760681	-0,0002777113462434047	-0,099974207324881626	0,000218704256	-0,030546970178444397	0,0011397485281959741	0,030546970178444397
1	0	0	1	0	0	1	600730,63	-0,100000001	2,16738892	-0,00027771165766939523	-0,099974319433805312	0,000216683227	-0,061095278778725261	0,0022795469947101942	0,061095278778725261
1	0	0	1	0	0	1	601830,65	-0,100000001	2,15472436	-0,00027771282863741117	-0,099974740976703002	0,000215418011	-0,09164369728278208	0,0034193495618820627	0,09164369728278208
1	0	0	1	0	0	1	602930,67	-0,100000001	2,13561273	-0,00027771317376900051	-0,09997486522174208	0,000213507592	-0,12219207835252957	0,0045591507323295187	0,12219207835252957
1	0	0	1	0	0	1	604030,69	-0,100000001	2,1195147	-0,00027771283226832749	-0,099974742281480666	0,000211897932	-0,15274053450052742	0,00569895470404744	0,15274053450052742
1	0	0	1	0	0	1	605130,71	-0,100000001	2,09622622	-0,00027771288338137997	-0,099974760684161715	0,000209569713	-0,18328892942830509	0,0068387563915566336	0,18328892942830509
1	0	0	1	0	0	1	606230,73	-0,100000001	2,06799769	-0,00027771258340734576	-0,099974652695537203	0,000206747354	-0,21383731500803184	0,0079785577302774797	0,21383731500803184
1	0	0	1	0	0	1	607330,75	-0,100000001	2,02639866	-0,00027771201918936438	-0,099974449578550349	0,000202588097	-0,24438566304534304	0,0091183576682403251	0,24438566304534304
1	0	0	1	0	0	1	608430,77	-0,100000001	1,98659241	-0,00027771222032234074	-0,09997452198738985	0,000198608628	-0,27493405375234621	0,010258159198266749	0,27493405375234621
1	0	0	1	0	0	1	609530,79	-0,100000001	1,96927381	-0,00027771215979009869	-0,099974500196191898	0,000196877168	-0,30548243320270765	0,011397960308292733	0,30548243320270765
1	0	0	1	0	0	1	610630,81	-0,100000001	1,96109128	-0,00027771258724273907	-0,09997465407392521	0,000196059424	-0,33603077649705754	0,012537760069289315	0,33603077649705754
1	0	0	1	0	0	1	611730,84	-0,100000001	1,95884061	-0,00027771268592278163	-0,099974689600401114	0,00019583448	-0,36657917521594931	0,013677561898250074	0,36657917521594931
1	0	0	1	0	0	1	612830,86	-0,100000001	1,95220315	-0,00027771345883690646	-0,099974967844261184	0,000195171451	-0,39712755535702202	0,014817363034047424	0,39712755535702202
1	0	0	1	0	0	1	613930,88	-0,100000001	1,9469198	-0,0002777136173658073	-0,09997502491010231	0,000194643362	-0,42767595129043507	0,015957164759078227	0,42767595129043507
1	0	0	1	0	0	1	615030,90	-0,100000001	1,94230402	-0,00027771192674049069	-0,099974416299908442	0,000194180713	-0,45822430939043834	0,017096965072493645	0,45822430939043834
1	0	0	1	0	0	1	616130,92	-0,100000001	1,93845117	-0,00027771277341163824	-0,09997472109579808	0,000193796121	-0,48877268712886605	0,018236766118645082	0,48877268712886605
1	0	0	1	0	0	1	617230,94	-0,100000001	1,93631494	-0,00027771250995289952	-0,099974626250105446	0,000193582368	-0,51932111115957491	0,019376568892023766	0,51932111115957491
1	0	0	1	0	0	1	618330,96	-0,100000001	1,93267202	-0,00027771265002215904	-0,099974676676419686	0,000193218264	-0,54986952374918541	0,020516371238519693	0,54986952374918541
1	0	0	1	0	0	1	619430,98	-0,100000001	1,92971563	-0,0002777125550173223	-0,099974642475320678	0,000192922627	-0,58041786378468608	0,021656170877924224	0,58041786378468608
1	0	0	1	0	0	1	620531,00	-0,100000001	1,92487097	-0,00027771273605277142	-0,099974707642203213	0,000192438412	-0,61096625125395123	0,022795972287146291	0,61096625125395123
1	0	0	1	0	0	1	621631,02	-0,100000001	1,9162879	-0,00027771407858985997	-0,099975190951134925	0,000191581246	-0,64151470621027763	0,023935776214401347	0,64151470621027763
1	0	0	1	0	0	1	622731,04	-0,100000001	1,90318453	-0,0002777154935395552	-0,099975700323460173	0,0001902722	-0,67206329661714112	0,025075585195498061	0,67206329661714112
1	0	0	1	0	0	1	623831,06	-0,100000001	1,87766433	-0,00027771604883381059	-0,099975900222146778	0,000187721176	-0,70261200046489869	0,02621539840922705	0,70261200046489869
1	0	0	1	0	0	1	624931,08	-0,100000001	1,78321302	-0,0002777144296231369	-0,099975317320741632	0,000178277289	-0,73316058941399258	0,027355207335932416	0,73316058941399258
1	0	0	1	0	0	1	626031,10	-0,100000001	1,40004802	-0,00027771442904447517	-0,099975317112427328	0,000139970245	-0,76370913824145638	0,028495014765645821	0,76370913824145638
1	0	0	1	0	0	1	627131,12	-0,100000001	1,01516628	-0,00027771560959683523	-0,099975742100968755	0,000101492005	-0,79425778110307917	0,029634825703900128	0,79425778110307917
1	1	0	0	0	0	2	628211,86	0,100000001	2,44330454	0,00027781418527911104	0,10001122868254624	0,000244357885	-0,76594008506663526	0,028578254391233155	0,029170576853773254
1	1	0	0	0	0	2	629311,88	0,100000001	2,4195962	0,00027781378086159626	0,10001108309148198	0,000241986432	-0,73538051981536115	0,027438035923935645	0,059730142105047514
1	1	0	0	0	0	2	630411,90	0,100000001	2,41915751	0,00027781449075332944	0,10001133865119986	0,000241943184	-0,70482093071809741	0,026297816566912205	0,09028973120231063
1	1	0	0	0	0	2	631511,92	0,100000001	2,41885233	0,00027781408450048835	0,10001119240292331	0,000241912305	-0,67426132620776922	0,025157596634806611	0,12084933571263867
1	1	0	0	0	0	2	632611,94	0,100000001	2,42589045	0,00027781338988410106	0,10001094234339096	0,000242615584	-0,64370178972867418	0,024017379241037789	0,15140887219173392
1	1	0	0	0	0	2	633711,96	0,100000001	2,44031	0,00027781347392002742	0,1000109725980849	0,000244057781	-0,6131422668522025	0,022877162354801136	0,18196839506820509
1	1	0	0	0	0	2	634811,98	0,100000001	2,43647623	0,00027781432995448509	0,10001128076470288	0,000243675109	-0,58258274442134566	0,021736945485190973	0,21252791749906218
1	1	0	0	0	0	2	635912,00	0,100000001	2,42934275	0,0002778135719862249	0,10001100789659603	0,000242961018	-0,55202319812614118	0,02059672772516991	0,24308746379426675
1	1	0	0	0	0	2	637012,02	0,100000001	2,43840265	0,00027781293240272333	0,10001077765551608	0,00024386654	-0,52146373331499309	0,019456513005428544	0,27364692860541485
1	1	0	0	0	0	2	638112,04	0,100000001	2,44341898	0,00027781460681599043	0,10001138043297325	0,000244369701	-0,49090419319395136	0,018316295475773795	0,30420646872645715
1	1	0	0	0	0	2	639212,06	0,100000001	2,44811082	0,00027781396495550874	0,10001114936870306	0,000244838389	-0,46034462248907187	0,017176076804994941	0,33476603943133658
1	1	0	0	0	0	2	640312,08	0,100000001	2,45768571	0,00027781267258773248	0,10001068412387571	0,000245794829	-0,42978513485871872	0,016035861233838362	0,36532552706168973
1	1	0	0	0	0	2	641412,10	0,100000001	2,46125245	0,00027781281737817654	0,1000107362474568	0,000246151671	-0,39922564281927827	0,0148956454981728	0,39588501910113024
1	1	0	0	0	0	2	642512,12	0,100000001	2,46809983	0,00027781384304331405	0,10001110547764432	0,000246837386	-0,3686661393688743	0,013755429336748851	0,42644452255153414
1	1	0	0	0	0	2	643612,15	0,100000001	2,47262025	0,00027781169271220762	0,1000103313753107	0,000247287564	-0,33810670540588403	0,012615215767993733	0,45700395651452448
1	1	0	0	0	0	2	644712,17	0,100000001	2,47828507	0,00027781263066165971	0,10001066903077296	0,000247854943	-0,30754738976396582	0,011475006613956899	0,48756327215644262
1	1	0	0	0	0	2	645812,19	0,100000001	2,4864676	0,0002778118019087447	0,10001037068183312	0,000248672557	-0,27698803464362854	0,010334795986927171	0,51812262727677958
1	1	0	0	0	0	2	646912,21	0,100000001	2,49148369	0,00027781268867477773	0,10001068991510326	0,000249175006	-0,24642864107200864	0,0091945839252283891	0,54868202084839936
1	1	0	0	0	0	2	648012,23	0,100000001	2,49638557	0,00027781302389171389	0,10001081059093421	0,000249665551	-0,21586920161587974	0,0080543701515168845	0,57924146030452749
1	1	0	0	0	0	2	649112,25	0,100000001	2,49854088	0,00027781364400850403	0,10001103382995094	0,000249881647	-0,18530973486647363	0,0069141553594565107	0,6098009270539337
1	1	0	0	0	0	2	650212,27	0,100000001	2,49962807	0,00027781402105341354	0,10001116956240531	0,000249990728	-0,15475020311998592	0,0057739381422676314	0,64036045880042189
1	1	0	0	0	0	2	651312,29	0,100000001	2,50954628	0,00027781314815911981	0,10001085532636029	0,000250981859	-0,12419073552947677	0,0046337233188245722	0,67091992639093069
1	1	0	0	0	0	2	652412,31	0,100000001	2,51475334	0,00027781387395825654	0,10001111660565034	0,000251503283	-0,093631276543130278	0,003493508816414391	0,70147938537727731
1	1	0	0	0	0	2	653512,33	0,100000001	2,52217293	0,00027781263526446288	0,10001067068775096	0,000252244208	-0,063071797173004749	0,0023532935534580061	0,73203886474740237
1	1	0	0	0	0	2	654612,35	0,100000001	2,52585411	0,00027781326902202429	0,10001089883618888	0,000252612954	-0,032512358838555814	0,0012130798215978888	0,76259830308185075
1	1	0	0	0	0	2	655712,37	0,100000001	2,53703094	0,00027781333992795808	0,10001092435951722	0,000253730803	-0,0019529251588153392	7,2866263411202342E-005	0,79315773676159155
1	1	0	0	0	0	2	656812,39	0,100000001	2,54183745	0,00027781323541990582	0,10001088673965339	0,000254211423	0,028606566258372435	-0,0010673494490372718	0,82371722817877926
1	1	0	0	0	0	2	657912,41	0,100000001	2,55494094	0,00027781349737031597	0,10001098104003024	0,000255522144	0,059166004266603443	-0,00220756316872576	0,85427666618701005
1	1	0	0	0	0	2	659012,43	0,100000001	2,56873107	0,00027781207241531875	0,10001046806819243	0,000256900006	0,089725400863503309	-0,0033477753433018048	0,88483606278390976
1	1	0	0	0	0	2	660112,46	0,100000001	2,58625937	0,00027781239903511274	0,10001058564678181	0,000258653308	0,12028477358863163	-0,0044879866271899571	0,91539543550903808
1	1	0	0	0	0	2	661212,48	0,100000001	2,63819623	0,00027781288917404083	0,10001076209348259	0,000263848022	0,150844237802992	-0,0056282013246643667	0,94595489972339866
1	1	0	0	0	0	2	662312,50	0,100000001	2,82803345	0,00027781321051054531	0,10001087777012349	0,000282834109	0,1814036879087167	-0,0067684154957266086	0,97651434982912269
1	1	0	0	0	0	2	663161,79	0,100000001	2,93827748	0,00025781132644456294	0,10001098152069538	0,000293860008	0,20499780917817174	-0,0076487438829234086	1,0001084710985778