File: Experimentelles/Rohdaten/Batterietests/AlteZelle/Studenten_Batterietests/S vs Li GCPL 300µm/ZView-Export/S vs Li GCPL 300µm_02_GCPL_C06_loop4.txt
EC-Lab ASCII FILE
Nb header lines : 3
mode	ox/red	error	control changes	Ns changes	counter inc.	Ns	time/s	control/V/mA	Ewe/V	dq/mA.h	<I>/mA	P/W	(Q-Qo)/mA.h	x	Capacity/mA.h
1	0	0	1	1	0	1	288865,45	-0,200000003	2,32715583	0	0	0	0	0	0
1	0	0	1	0	0	1	290015,48	-0,200000003	2,26132512	-0,00055585038140333357	-0,20010228434481331	0,000452496315	-0,063919977805907494	0,0023849403132625978	0,063919977805907494
1	0	0	1	0	0	1	291165,50	-0,200000003	2,23829579	-0,00055585248000754253	-0,2001030398301112	0,00044788979	-0,12784302101674419	0,0047699950009045837	0,12784302101674419
1	0	0	1	0	0	1	292315,52	-0,200000003	2,2075901	-0,00055584900596986214	-0,20010178920761539	0,000441742741	-0,1917655679089873	0,0071550311702325363	0,1917655679089873
1	0	0	1	0	0	1	293465,54	-0,200000003	2,15615988	-0,00055585144449356531	-0,20010266705924563	0,000431453343	-0,25568807200003651	0,0095400657425903974	0,25568807200003651
1	0	0	1	0	0	1	294615,57	-0,200000003	2,07371902	-0,000555841697772344	-0,20009915830250781	0,000414949434	-0,31961042054835533	0,011925094511439859	0,31961042054835533
1	0	0	1	0	0	1	295765,59	-0,200000003	2,00207877	-0,00055585052345693114	-0,20010233548312374	0,000400620629	-0,38353276841233504	0,014310123254755707	0,38353276841233504
1	0	0	1	0	0	1	296915,61	-0,200000003	1,99143064	-0,0005558310021046135	-0,20009530794092208	0,000398475939	-0,44745377592986842	0,01669510198794353	0,44745377592986842
1	0	0	1	0	0	1	298065,63	-0,200000003	1,9956975	-0,00055583662686000269	-0,20009733280455587	0,000399333745	-0,51137478929622739	0,019080080939358896	0,51137478929622739
1	0	0	1	0	0	1	299215,65	-0,200000003	1,99998331	-0,00055585860617872742	-0,20010524521160282	0,000400207151	-0,57529678871719514	0,021465096681797482	0,57529678871719514
1	0	0	1	0	0	1	300365,68	-0,200000003	2,00655508	-0,00055585060444474227	-0,20010236464749219	0,000401516416	-0,63921969878132698	0,023850146401556896	0,63921969878132698
1	0	0	1	0	0	1	301515,70	-0,200000003	2,01514578	-0,00055585105313360691	-0,20010252617237334	0,000403235754	-0,70314261422783718	0,026235196322140077	0,70314261422783718
1	0	0	1	0	0	1	302665,72	-0,200000003	2,02423167	-0,00055584267713460659	-0,20009951086380435	0,000405047758	-0,7670650963401367	0,028620230074441235	0,7670650963401367
1	0	0	1	0	0	1	303815,74	-0,200000003	2,03308916	-0,00055584874671532051	-0,20010169586845968	0,000406824576	-0,8309882124844535	0,031005287483329427	0,8309882124844535
1	0	0	1	0	0	1	304965,76	-0,200000003	2,04021335	-0,00055584722540527584	-0,20010114821670656	0,000408249034	-0,89491077931909274	0,033390324396734989	0,89491077931909274
1	0	0	1	0	0	1	306115,79	-0,200000003	2,04648018	-0,00055584869781219296	-0,20010167826367277	0,000409504108	-0,95883354755675904	0,035775368824758285	0,95883354755675904
1	0	0	1	0	0	1	307265,81	-0,200000003	2,05179453	-0,00055584350277317901	-0,20009980809029677	0,000410563691	-1,022756046006147	0,038160403186618182	1,022756046006147
1	0	0	1	0	0	1	308415,83	-0,200000003	2,05579472	-0,00055585804055217242	-0,20010504159462269	0,000411374873	-1,0866787054579826	0,040545443555695866	1,0866787054579826
1	0	0	1	0	0	1	309565,85	-0,200000003	2,05809951	-0,00055584459874530637	-0,20010020263732458	0,000411826128	-1,1506014969810392	0,042930488852528378	1,1506014969810392
1	0	0	1	0	0	1	310715,88	-0,200000003	2,05857563	-0,00055583952641735475	-0,20009837662859802	0,00041191763	-1,2145235932846605	0,04531550820978903	1,2145235932846605
1	0	0	1	0	0	1	311865,90	-0,200000003	2,05754709	-0,00055585431024597747	-0,20010369871024963	0,00041172278	-1,2784462421555074	0,047700548184075802	1,2784462421555074
1	0	0	1	0	0	1	313015,92	-0,200000003	2,05508995	-0,00055584909989519245	-0,2001018230200833	0,000411227258	-1,3423695222001142	0,050085611708304173	1,3423695222001142
1	0	0	1	0	0	1	314165,94	-0,200000003	2,05099463	-0,00055584768116722502	-0,20010131227853133	0,000410406705	-1,4062923176462674	0,052470657151512704	1,4062923176462674
1	0	0	1	0	0	1	315315,96	-0,200000003	2,04116559	-0,00055585818109330202	-0,20010509217913725	0,000408447639	-1,4702153342301728	0,05485571084566807	1,4702153342301728
1	0	0	1	0	0	1	316465,99	-0,200000003	2,01979351	-0,00055585143448743558	-0,20010266345710826	0,000404166058	-1,5341383277298438	0,057240763678519642	1,5341383277298438
1	0	0	1	0	0	1	317616,01	-0,200000003	1,9796207	-0,00055584501448853146	-0,20010035230200387	0,000396122807	-1,5980612762915552	0,059625814834675507	1,5980612762915552
1	0	0	1	0	0	1	318766,03	-0,200000003	1,91546631	-0,0005558412189251847	-0,20009898591852022	0,000383282866	-1,6619832295650864	0,062010828855291187	1,6619832295650864
1	0	0	1	0	0	1	319916,05	-0,200000003	1,84262586	-0,00055585660559352909	-0,2001045250194577	0,000368717767	-1,7259055678362397	0,064395857240685786	1,7259055678362397
1	0	0	1	0	0	1	321066,07	-0,200000003	1,728127	-0,0005558494049790832	-0,20010193284816922	0,000345801556	-1,7898281135456054	0,066780893365878989	1,7898281135456054
1	1	0	0	0	0	2	322200,42	0,200000003	2,30275512	0,00055539590520825651	0,19993867607416576	0,000460409821	-1,7973179950470774	0,067060350914951693	0,027769240773660432
1	1	0	0	0	0	2	323350,45	0,200000003	2,25431538	0,00055538419369856512	0,19993446001185677	0,000450715335	-1,7334486712394806	0,064677300570471078	0,091638564581258394
1	1	0	0	0	0	2	324500,47	0,200000003	2,25168681	0,00055537668464663962	0,19993175679823117	0,000450183696	-1,6695801621190493	0,062294280623063987	0,15550707370168963
1	1	0	0	0	0	2	325650,49	0,200000003	2,25402951	0,00055539415083825594	0,19993804451312621	0,000450666266	-1,60571163655204	0,059911260062012954	0,21937559926869978
1	1	0	0	0	0	2	326800,51	0,200000003	2,2580297	0,00055539847304920358	0,19993960047910736	0,000451469561	-1,5418420163837597	0,057528198659916794	0,28324521943697917
1	1	0	0	0	0	2	327950,53	0,200000003	2,26206803	0,0005553952650609943	0,1999384456209335	0,000452274369	-1,477971819481769	0,055145115739110464	0,34711541633897024
1	1	0	0	0	0	2	329100,56	0,200000003	2,26604915	0,00055539452709423174	0,19993817995335923	0,000453069748	-1,4141017643490949	0,052762038107907955	0,41098547147164499
1	1	0	0	0	0	2	330250,58	0,200000003	2,27018261	0,00055539664852784742	0,19993894366406605	0,000453897926	-1,3502318188193582	0,050378964566138406	0,47485541700138048
1	1	0	0	0	0	2	331400,60	0,200000003	2,2744112	0,00055538211388885984	0,19993371128546934	0,00045473146	-1,2863621461287982	0,047995901204365363	0,53872508969194086
1	1	0	0	0	0	2	332550,62	0,200000003	2,27879238	0,00055537309251311757	0,19993046365506266	0,000455600006	-1,2224930337526818	0,045612858748677568	0,6025942020680567
1	1	0	0	0	0	2	333700,65	0,200000003	2,28340197	0,00055538445867929197	0,19993455540308166	0,00045653095	-1,1586235852389208	0,043229803751242317	0,66646365058181837
1	1	0	0	0	0	2	334850,67	0,200000003	2,28806877	0,00055537375621000928	0,19993070258832547	0,0004574552	-1,0947554147583016	0,040846796438941914	0,73033182106243776
1	1	0	0	0	0	2	336000,69	0,200000003	2,29292607	0,00055536505306594906	0,19992756950748115	0,000458419148	-1,0308881044857906	0,038463821222162592	0,7941991313349481
1	1	0	0	0	0	2	337150,71	0,200000003	2,29824066	0,0005553649485384425	0,19992753188761299	0,000459481584	-0,96702086761932966	0,036080848744261702	0,85806636820140902
1	1	0	0	0	0	2	338300,73	0,200000003	2,30345988	0,00055536600516736506	0,19992791226670099	0,000460525916	-0,90315367064838106	0,033697877754916	0,92193356517235763
1	1	0	0	0	0	2	339450,76	0,200000003	2,30888844	0,00055537554195523264	0,19993134543491792	0,000461619173	-0,83928665431565581	0,031314913505425293	0,98580058150508288
1	1	0	0	0	0	2	340600,78	0,200000003	2,31456494	0,00055535272798770003	0,19992313256939933	0,000462735072	-0,77542017652608922	0,02893196934970391	1,0496670592946499
1	1	0	0	0	0	2	341750,80	0,200000003	2,31966972	0,00055536756446792019	0,19992847360409229	0,000463768025	-0,71155380512634355	0,026549029163529792	1,1135334306943954
1	1	0	0	0	0	2	342900,82	0,200000003	2,32349849	0,00055536422647535802	0,19992727194990768	0,00046453072	-0,64768719286978522	0,02416607999066415	1,1774000429509544
1	1	0	0	0	0	2	344050,84	0,200000003	2,32626057	0,00055536139458003974	0,19992625248373168	0,000465080549	-0,58382137896720038	0,021783160605458666	1,2412658568535386
1	1	0	0	0	0	2	345200,87	0,200000003	2,32761288	0,00055535692349076269	0,19992464292607494	0,00046534717	-0,51995470536056442	0,019400209143539152	1,3051325304601757
1	1	0	0	0	0	2	346350,89	0,200000003	2,32847023	0,00055536192596620986	0,19992644378256061	0,000465522782	-0,45608873262757504	0,017017283832157718	1,3689985031931645
1	1	0	0	0	0	2	347500,91	0,200000003	2,32932734	0,00055536674749106176	0,19992817948877654	0,000465698162	-0,39222193509307277	0,014634327746322886	1,4328653007276672
1	1	0	0	0	0	2	348650,93	0,200000003	2,32957482	0,00055535936101360448	0,19992552040809242	0,000465741468	-0,32835480855832691	0,012251359385046621	1,4967324272624125
1	1	0	0	0	0	2	349800,96	0,200000003	2,33018446	0,00055536287939382925	0,19992678700989478	0,000465866295	-0,26448826442724909	0,0098684127540342566	1,5605989713934906
1	1	0	0	0	0	2	350950,98	0,200000003	2,33113694	0,00055536659370776685	0,19992812413716605	0,000466059835	-0,20062173453502886	0,0074854666542928154	1,6244655012857104
1	1	0	0	0	0	2	352101,00	0,200000003	2,33266068	0,0005553660792435209	0,19992793892662131	0,000466364028	-0,1367551354065532	0,0051025179712535949	1,6883321004141862
1	1	0	0	0	0	2	353251,02	0,200000003	2,33437514	0,00055535697657946086	0,1999246620376383	0,000466699159	-0,072889000518265971	0,0027195866096399821	1,7521982353024739
1	1	0	0	0	0	2	354401,04	0,200000003	2,33700371	0,00055534765457444723	0,19992130618045011	0,000467216829	-0,0090236793594487206	0,00033668560936696531	1,8160635564612922
1	1	0	0	0	0	2	355551,07	0,200000003	2,33953714	0,00055534075356274842	0,1999188218594192	0,000467717502	0,054840645855581338	-0,0020461782309042906	1,8799278816763222
1	1	0	0	0	0	2	356701,09	0,200000003	2,3425467	0,00055534755190875795	0,19992126921220422	0,000468324899	0,11870585342152389	-0,0044290749928744256	1,9437930892422646
1	1	0	0	0	0	2	357700,39	0,200000003	2,34574676	0,00051537247939573402	0,19992481928861296	0,000468972983	0,17420051671992298	-0,0064996554939060506	1,9992877525406643