File: Experimentelles/Rohdaten/Batterietests/AlteZelle/Studenten_Batterietests/S vs Li GCPL 300µm/ZView-Export/S vs Li GCPL 300µm_01_OCV_C06_loop0.txt
EC-Lab ASCII FILE
Nb header lines : 3
mode	error	time/s	Ewe/V
3	1	0,00	2,35784245
3	0	15,00	2,35784245
3	0	30,00	2,35753775
3	0	45,00	2,35765195
3	0	60,00	2,35770917
3	0	75,00	2,35765195
3	0	90,00	2,35774732
3	0	105,00	2,35746145
3	0	120,00	2,35759497
3	0	135,00	2,35753775
3	0	150,00	2,3573854
3	0	165,00	2,35736632
3	0	180,00	2,3574996
3	0	195,00	2,3573091
3	0	210,00	2,35725188
3	0	225,00	2,35725188
3	0	240,00	2,35717583
3	0	255,00	2,3573091
3	0	270,00	2,35709953
3	0	285,00	2,3571949
3	0	300,00	2,35711861
3	0	315,00	2,35729003
3	0	330,00	2,35706162
3	0	345,00	2,35713768
3	0	360,00	2,35709953
3	0	375,00	2,35702348
3	0	390,00	2,35711861
3	0	405,00	2,35698533
3	0	420,00	2,35698533
3	0	435,00	2,35692811
3	0	450,00	2,3570044
3	0	465,00	2,35696626
3	0	480,00	2,35690904
3	0	495,00	2,35685205
3	0	510,00	2,35673761
3	0	525,00	2,35681391
3	0	540,00	2,35681391
3	0	555,00	2,35698533
3	0	570,00	2,35683298
3	0	585,00	2,35677576
3	0	600,00	2,35683298
3	0	615,00	2,35671854
3	0	630,00	2,35677576
3	0	645,00	2,35664248
3	0	660,00	2,35675669
3	0	675,00	2,35662341
3	0	690,00	2,35671854
3	0	705,00	2,35662341
3	0	720,00	2,35660434
3	0	735,00	2,35652804
3	0	750,00	2,35654712
3	0	765,00	2,35645199
3	0	780,00	2,35633779
3	0	795,00	2,35643291
3	0	810,00	2,35643291
3	0	825,00	2,35639477
3	0	840,00	2,35635662
3	0	855,00	2,35643291
3	0	870,00	2,35637569
3	0	885,00	2,35620427
3	0	900,00	2,35628057
3	0	915,00	2,35614729
3	0	930,00	2,35616636
3	0	945,00	2,35620427
3	0	960,00	2,35620427
3	0	975,00	2,35609007
3	0	990,00	2,35597587
3	0	1005,00	2,35597587
3	0	1020,00	2,3561852
3	0	1035,00	2,35589957
3	0	1050,00	2,35603285
3	0	1065,00	2,35591865
3	0	1080,00	2,35593772
3	0	1095,00	2,35589957
3	0	1110,00	2,35578537
3	0	1125,00	2,35570908
3	0	1140,00	2,35574722
3	0	1155,00	2,35563278
3	0	1170,00	2,3557663
3	0	1185,00	2,35595679
3	0	1200,00	2,35548043
3	0	1215,00	2,3555758
3	0	1230,00	2,35559487
3	0	1245,00	2,3555758
3	0	1260,00	2,35559487
3	0	1275,00	2,35559487
3	0	1290,00	2,35563278
3	0	1305,00	2,35540438
3	0	1320,00	2,35549951
3	0	1335,00	2,35542345
3	0	1350,00	2,35551858
3	0	1365,00	2,35548043
3	0	1380,00	2,35536623
3	0	1395,00	2,35528994
3	0	1410,00	2,35528994
3	0	1425,00	2,35527086
3	0	1440,00	2,35528994
3	0	1455,00	2,35523295
3	0	1470,00	2,35515666
3	0	1485,00	2,35511851
3	0	1500,00	2,35511851
3	0	1515,00	2,35509944
3	0	1530,00	2,3550806
3	0	1545,00	2,35498524
3	0	1560,00	2,35502338
3	0	1575,00	2,35498524
3	0	1590,00	2,35504246
3	0	1605,00	2,35502338
3	0	1620,00	2,35490894
3	0	1635,00	2,35479474
3	0	1650,00	2,35490894
3	0	1665,00	2,35475659
3	0	1680,00	2,35481381
3	0	1695,00	2,35469961
3	0	1710,00	2,35477567
3	0	1725,00	2,35464239
3	0	1740,00	2,35460424
3	0	1755,00	2,35468054
3	0	1770,00	2,3545661
3	0	1785,00	2,35445189
3	0	1800,00	2,3545661
3	0	1815,00	2,35435677
3	0	1830,00	2,3543756
3	0	1845,00	2,35458517
3	0	1860,00	2,35433769
3	0	1875,00	2,35445189
3	0	1890,00	2,35439467
3	0	1905,00	2,35433769
3	0	1920,00	2,35428047
3	0	1935,00	2,35422325
3	0	1950,00	2,35420418
3	0	1965,00	2,35428047
3	0	1980,00	2,35416627
3	0	1995,00	2,35416627
3	0	2010,00	2,3540709
3	0	2025,00	2,35420418
3	0	2040,00	2,35403275
3	0	2055,00	2,35416627
3	0	2070,00	2,35389948
3	0	2085,00	2,3540709
3	0	2100,00	2,35399485
3	0	2115,00	2,35401368
3	0	2130,00	2,35399485
3	0	2145,00	2,3537662
3	0	2160,00	2,35388041
3	0	2175,00	2,35393763
3	0	2190,00	2,35384226
3	0	2205,00	2,35382342
3	0	2220,00	2,35389948
3	0	2235,00	2,35367084
3	0	2250,00	2,35372806
3	0	2265,00	2,35368991
3	0	2280,00	2,35338521
3	0	2295,00	2,35355663
3	0	2310,00	2,35353756
3	0	2325,00	2,35357571
3	0	2340,00	2,35357571
3	0	2355,00	2,35351849
3	0	2370,00	2,35353756
3	0	2385,00	2,35355663
3	0	2400,00	2,3534615
3	0	2415,00	2,35348034
3	0	2430,00	2,35336614
3	0	2445,00	2,35330892
3	0	2460,00	2,35332799
3	0	2475,00	2,35321379
3	0	2490,00	2,35336614
3	0	2505,00	2,35336614
3	0	2520,00	2,35327101
3	0	2535,00	2,35323286
3	0	2550,00	2,35325193
3	0	2565,00	2,35317564
3	0	2580,00	2,35319471
3	0	2595,00	2,35302329
3	0	2610,00	2,35327101
3	0	2625,00	2,35296607
3	0	2640,00	2,35287094
3	0	2655,00	2,35283279
3	0	2670,00	2,35298514
3	0	2685,00	2,35290909
3	0	2700,00	2,3527565
3	0	2715,00	2,35277557
3	0	2730,00	2,3526423
3	0	2745,00	2,352947
3	0	2760,00	2,35302329
3	0	2775,00	2,35287094
3	0	2790,00	2,35260415
3	0	2805,00	2,35266137
3	0	2820,00	2,3526423
3	0	2835,00	2,35262322
3	0	2850,00	2,35247087
3	0	2865,00	2,35248995
3	0	2880,00	2,35250902
3	0	2895,00	2,3525281
3	0	2910,00	2,35260415
3	0	2925,00	2,35241365
3	0	2940,00	2,35243273
3	0	2955,00	2,35228038
3	0	2970,00	2,35235667
3	0	2985,00	2,35248995
3	0	3000,00	2,35222316
3	0	3015,00	2,35231853
3	0	3030,00	2,35224223
3	0	3045,00	2,35210896
3	0	3060,00	2,35228038
3	0	3075,00	2,35224223
3	0	3090,00	2,35199475
3	0	3105,00	2,35216618
3	0	3120,00	2,35193753
3	0	3135,00	2,35210896
3	0	3150,00	2,35212803
3	0	3165,00	2,35212803
3	0	3180,00	2,35191846
3	0	3195,00	2,35191846
3	0	3210,00	2,35199475
3	0	3225,00	2,35201383
3	0	3240,00	2,35203266
3	0	3255,00	2,3518424
3	0	3270,00	2,35188031
3	0	3285,00	2,35176611
3	0	3300,00	2,35186124
3	0	3315,00	2,35178518
3	0	3330,00	2,35174704
3	0	3345,00	2,35174704
3	0	3360,00	2,35170889
3	0	3375,00	2,35170889
3	0	3390,00	2,35165191
3	0	3405,00	2,35174704
3	0	3420,00	2,35159469
3	0	3435,00	2,35170889
3	0	3450,00	2,35142326
3	0	3465,00	2,35161376
3	0	3480,00	2,35151839
3	0	3495,00	2,35151839
3	0	3510,00	2,35149932
3	0	3525,00	2,35144234
3	0	3540,00	2,35121369
3	0	3555,00	2,35128999
3	0	3570,00	2,35125184
3	0	3585,00	2,35136604
3	0	3600,00	2,35109949