File: Experimentelles/Rohdaten/Batterietests/AlteZelle/Studenten_Batterietests/S vs Li GCPL 300µm/ZView-Export/S vs Li GCPL 300µm_02_GCPL_C06_loop10.txt
EC-Lab ASCII FILE
Nb header lines : 3
mode	ox/red	error	control changes	Ns changes	counter inc.	Ns	time/s	control/V/mA	Ewe/V	dq/mA.h	<I>/mA	P/W	(Q-Qo)/mA.h	x	Capacity/mA.h
1	0	0	1	1	0	1	696637,89	-0,200000003	2,35709953	0	0	0	0	0	0
1	0	0	1	0	0	1	697777,92	-0,200000003	2,26629663	-0,00055587304167532262	-0,20011053731327715	0,000453509827	-0,063366986002076442	0,002364307445556273	0,063366986002076442
1	0	0	1	0	0	1	698917,94	-0,200000003	2,24454355	-0,00055587621975524557	-0,20011168139357699	0,000449159386	-0,12673685243017594	0,00472872236368024	0,12673685243017594
1	0	0	1	0	0	1	700057,96	-0,200000003	2,22191429	-0,00055588320633520678	-0,20011419652212259	0,000444636593	-0,19010753332893328	0,0070931676707995187	0,19010753332893328
1	0	0	1	0	0	1	701197,98	-0,200000003	2,19395161	-0,00055589254367185971	-0,20011755790019741	0,00043904825	-0,2534790748812873	0,0094576450900616512	0,2534790748812873
1	0	0	1	0	0	1	702338,00	-0,200000003	2,14233088	-0,00055588905840863782	-0,20011630322200902	0,000428715342	-0,31685102827321811	0,011822137875612117	0,31685102827321811
1	0	0	1	0	0	1	703478,02	-0,200000003	2,01402187	-0,00055588207358121862	-0,20011378873834422	0,00040303354	-0,38022208976264141	0,014186597383080854	0,38022208976264141
1	0	0	1	0	0	1	704618,04	-0,200000003	1,8812747	-0,0005558801822240153	-0,20011310786253658	0,000376467739	-0,44359223708026387	0,016551022781570582	0,44359223708026387
1	0	0	1	0	0	1	705758,07	-0,200000003	1,86594093	-0,00055587764770040902	-0,20011219544651248	0,000373397546	-0,50696274828740051	0,018915461757267341	0,50696274828740051
1	0	0	1	0	0	1	706898,09	-0,200000003	1,87571263	-0,00055589132012012941	-0,2001171174298457	0,0003753622	-0,57033314571654682	0,021279896487754301	0,57033314571654682
1	0	0	1	0	0	1	708038,11	-0,200000003	1,87413168	-0,00055587185739311904	-0,2001101109796896	0,000375032687	-0,63370318180482304	0,023644317736127574	0,63370318180482304
1	0	0	1	0	0	1	709178,13	-0,200000003	1,87826514	-0,0005558735168029865	-0,20011070835602432	0,000375860982	-0,69707277365345178	0,02600872240932231	0,69707277365345178
1	0	0	1	0	0	1	710318,15	-0,200000003	1,8927418	-0,00055587822834319539	-0,2001124044786496	0,00037876112	-0,7604431296665641	0,02837315559452136	0,7604431296665641
1	0	0	1	0	0	1	711458,17	-0,200000003	1,9078089	-0,0005558767552094327	-0,20011187416045341	0,0003817752	-0,823812734197216	0,03073756074089943	0,823812734197216
1	0	0	1	0	0	1	712598,19	-0,200000003	1,92110455	-0,00055586524468908717	-0,20010773044162176	0,000384427869	-0,88718168313777818	0,033101941426329805	0,88718168313777818
1	0	0	1	0	0	1	713738,22	-0,200000003	1,93670511	-0,00055587395045823526	-0,20011086446898237	0,000387555745	-0,95055040746519168	0,035466313731141613	0,95055040746519168
1	0	0	1	0	0	1	714878,24	-0,200000003	1,94792449	-0,00055587420469191341	-0,2001109559913879	0,000389801047	-1,013920202371176	0,037830725980679296	1,013920202371176
1	0	0	1	0	0	1	716018,26	-0,200000003	1,9594487	-0,00055586867067880096	-0,20010896378407722	0,000392103248	-1,0772894077787904	0,040195116235240211	1,0772894077787904
1	0	0	1	0	0	1	717158,28	-0,200000003	1,97386813	-0,0005558746994990441	-0,20011113411861005	0,000394992996	-1,1406586738941325	0,04255950875488807	1,1406586738941325
1	0	0	1	0	0	1	718298,30	-0,200000003	1,98474467	-0,00055587160301374074	-0,20011001940483296	0,000397167285	-1,2040282395722752	0,04492391245162679	1,2040282395722752
1	0	0	1	0	0	1	719438,32	-0,200000003	1,99350691	-0,00055587156020022106	-0,20011000399225533	0,000398920674	-1,2673975083762024	0,04728830507158937	1,2673975083762024
1	0	0	1	0	0	1	720578,34	-0,200000003	2,0004406	-0,00055588020582745485	-0,20011311635961523	0,000400314399	-1,3307669677415576	0,049652704801655053	1,3307669677415576
1	0	0	1	0	0	1	721718,37	-0,200000003	2,00310731	-0,00055588198633160858	-0,2001137573290744	0,000400849327	-1,3941372425949867	0,052017134958677197	1,3941372425949867
1	0	0	1	0	0	1	722858,39	-0,200000003	2,00204062	-0,00055588430623958509	-0,20011459248026346	0,000400637538	-1,4575075212563002	0,054381565257776634	1,4575075212563002
1	0	0	1	0	0	1	723998,41	-0,200000003	2,00028825	-0,00055589086746507226	-0,20011695447708506	0,000400291581	-1,5208780488629338	0,056746004845360672	1,5208780488629338
1	0	0	1	0	0	1	725138,43	-0,200000003	1,99259257	-0,00055586455787056019	-0,20010748320091302	0,000398732693	-1,5842478636636608	0,059110417837197952	1,5842478636636608
1	0	0	1	0	0	1	726278,45	-0,200000003	1,96636319	-0,00055586967303189971	-0,20010932462441686	0,0003934876	-1,6476165498557219	0,061474788719128499	1,6476165498557219
1	0	0	1	0	0	1	727418,47	-0,200000003	1,85885501	-0,00055587699961413946	-0,20011196214449565	0,000371979113	-1,7109856135595642	0,063839173686531136	1,7109856135595642
1	1	0	0	0	0	2	728546,66	0,200000003	2,3057456	0,0005553529691273968	0,19992331471170314	0,000460972311	-1,7525843687500874	0,065391279172810765	0,010551678428872589
1	1	0	0	0	0	2	729686,68	0,200000003	2,27271605	0,00055535108176370458	0,19992263527353245	0,000454367371	-1,6892741464912822	0,06302908965883561	0,073861900687677158
1	1	0	0	0	0	2	730826,70	0,200000003	2,26761103	0,00055536441802399021	0,19992743623708246	0,000453357672	-1,6259627826854045	0,060666857552204352	0,13717326449355477
1	1	0	0	0	0	2	731966,72	0,200000003	2,27058244	0,00055534867796219059	0,19992176992123709	0,000453938846	-1,5626516417364826	0,058304633760665741	0,20048440544247632
1	1	0	0	0	0	2	733106,74	0,200000003	2,27585888	0,00055535087072518131	0,19992255929178128	0,000454995519	-1,4993415170571837	0,055942447887513158	0,26379453012177507
1	1	0	0	0	0	2	734246,76	0,200000003	2,28163052	0,00055535507530884608	0,1999240729227871	0,000456152862	-1,4360307445623246	0,053580237843491027	0,32710530261663354
1	1	0	0	0	0	2	735386,79	0,200000003	2,28803062	0,0005553677769982153	0,1999286454450969	0,00045744286	-1,3727196107770394	0,051218014319237344	0,39041643640191878
1	1	0	0	0	0	2	736526,81	0,200000003	2,29416418	0,00055536772752470438	0,1999286276256577	0,000458669092	-1,3094078718376546	0,04885576821587056	0,45372817534130336
1	1	0	0	0	0	2	737666,83	0,200000003	2,30043101	0,00055536982887817747	0,19992938410801261	0,000459923758	-1,2460960745857517	0,046493519936785325	0,51703997259320589
1	1	0	0	0	0	2	738806,85	0,200000003	2,30688858	0,0005553732736193472	0,19993062419154733	0,000461217685	-1,1827840059532138	0,044131261532123725	0,58035204122574323
1	1	0	0	0	0	2	739946,87	0,200000003	2,31347919	0,00055537312159273357	0,1999305694583392	0,000462535216	-1,1194718294984747	0,041768999104470829	0,64366421768048064
1	1	0	0	0	0	2	741086,89	0,200000003	2,31991744	0,00055537303502195405	0,19993053829809872	0,000463822333	-1,0561602749405771	0,039406759880625242	0,70697577223837773
1	1	0	0	0	0	2	742226,91	0,200000003	2,32595587	0,00055537411533544461	0,19993092720365245	0,00046503052	-0,99284782206964211	0,037044487139512429	0,77028822510931264
1	1	0	0	0	0	2	743366,94	0,200000003	2,33098459	0,0005553679043923815	0,19992869129915325	0,000466030702	-0,92953521209082611	0,034682208536493344	0,83360083508812864
1	1	0	0	0	0	2	744506,96	0,200000003	2,33467984	0,00055537906177176365	0,19993270788728947	0,000466778874	-0,86622275419058214	0,032319935607730246	0,89691329298837261
1	1	0	0	0	0	2	745646,98	0,200000003	2,33723235	0,00055537047670698822	0,19992961732200518	0,000467281963	-0,80291077262191194	0,029957680451538611	0,96022527455704282
1	1	0	0	0	0	2	746787,00	0,200000003	2,33928943	0,00055537491089933446	0,19993121359429238	0,000467696984	-0,73959871701220902	0,02759542253277649	1,0235373301667451
1	1	0	0	0	0	2	747927,02	0,200000003	2,34113717	0,00055537858776665395	0,19993253724865427	0,000468069484	-0,67628622219409357	0,025233148226557978	1,0868498249848597
1	1	0	0	0	0	2	749067,04	0,200000003	2,34260392	0,00055536897845069568	0,19992907795986806	0,000468354643	-0,61297383734623373	0,022870878023477558	1,150162209832719
1	1	0	0	0	0	2	750207,06	0,200000003	2,3439374	0,00055536786460545331	0,19992867697612806	0,000468620303	-0,54966155026625382	0,020508611468248192	1,2134744969126989
1	1	0	0	0	0	2	751347,09	0,200000003	2,34530878	0,00055537090893586477	0,19992977292147888	0,000468897051	-0,4863494878412144	0,018146353295196704	1,2767865593377387
1	1	0	0	0	0	2	752487,11	0,200000003	2,34650874	0,00055537110270145869	0,19992984267578285	0,000469137129	-0,42303699830923386	0,015784079186210995	1,340099048869719
1	1	0	0	0	0	2	753627,13	0,200000003	2,34818506	0,00055538271138568723	0,19993402171897568	0,000469482096	-0,35972389853371027	0,01342178230821821	1,4034121486452429
1	1	0	0	0	0	2	754767,15	0,200000003	2,35073757	0,00055537749501731667	0,19993214386627978	0,000469988008	-0,29641068072082541	0,011059481026092773	1,4667253664581286
1	1	0	0	0	0	2	755907,17	0,200000003	2,35323286	0,00055537068587541581	0,19992969262122515	0,000470481114	-0,23309759625142589	0,0086971847191920589	1,5300384509275283
1	1	0	0	0	0	2	757047,19	0,200000003	2,35647106	0,00055537654845250976	0,19993180310003818	0,000471133506	-0,16978490901998365	0,0063349032337736192	1,593351138158969
1	1	0	0	0	0	2	758187,21	0,200000003	2,36033773	0,0005553770398447911	0,19993198000724755	0,000471906998	-0,1064717995676161	0,003972605994724777	1,6566642476113366
1	1	0	0	0	0	2	759327,24	0,200000003	2,36509991	0,00055537401322192614	0,19993089044347606	0,00047285654	-0,043158970074588486	0,0016103192013353168	1,7199770771043645
1	1	0	0	0	0	2	760467,26	0,200000003	2,3706429	0,00055538122265703149	0,19993348578206838	0,000473970897	0,020154333079204541	-0,0007519852649741449	1,7832903802581571
1	1	0	0	0	0	2	761607,28	0,200000003	2,37692881	0,0005553702703971001	0,1999295430518401	0,000475218287	0,083467035983906586	-0,0031142673351829786	1,8466030831628611
1	1	0	0	0	0	2	762747,30	0,200000003	2,38422418	0,00055537599448611334	0,19993160368519014	0,000476681773	0,14677991280652637	-0,0054765558945031578	1,9099159599854794
1	1	0	0	0	0	2	763887,32	0,200000003	2,39285302	0,00055537525444974502	0,19993133727710019	0,000478406291	0,21009277083540429	-0,007838843752603561	1,9732288180143574
1	1	0	0	0	0	2	764356,61	0,200000003	2,39702463	0,00051538834074719085	0,19993106793751651	0,000479239709	0,2361553915281673	-0,0088112751722167552	1,9992914387071206