File: Experimentelles/Rohdaten/Batterietests/AlteZelle/Studenten_Batterietests/S vs Li GCPL 300µm/ZView-Export/S vs Li GCPL 300µm_02_GCPL_C06_loop9.txt
EC-Lab ASCII FILE
Nb header lines : 3
mode	ox/red	error	control changes	Ns changes	counter inc.	Ns	time/s	control/V/mA	Ewe/V	dq/mA.h	<I>/mA	P/W	(Q-Qo)/mA.h	x	Capacity/mA.h
1	0	0	1	1	0	1	629751,65	-0,200000003	2,34685159	0	0	0	0	0	0
1	0	0	1	0	0	1	630871,67	-0,200000003	2,26414418	-0,00055587043776611488	-0,20010959992356474	0,000453076995	-0,062254455968601152	0,0023227974541947712	0,062254455968601152
1	0	0	1	0	0	1	631991,69	-0,200000003	2,24201012	-0,00055586634807785344	-0,20010812765411875	0,000448644452	-0,12451163872929349	0,0046456966486686758	0,12451163872929349
1	0	0	1	0	0	1	633111,71	-0,200000003	2,21861887	-0,00055587686482899712	-0,20011191362275555	0,000443972065	-0,18676880880161629	0,0069685953697224525	0,18676880880161629
1	0	0	1	0	0	1	634231,73	-0,200000003	2,18617988	-0,0005558659478566713	-0,2001079835865167	0,000437472045	-0,24902611672549453	0,0092914992342031066	0,24902611672549453
1	0	0	1	0	0	1	635351,75	-0,200000003	2,12450171	-0,00055587714740137267	-0,20011201533758227	0,000425138307	-0,31128330590977638	0,011614398668349773	0,31128330590977638
1	0	0	1	0	0	1	636471,78	-0,200000003	1,99183071	-0,00055586210145635725	-0,20010659890840528	0,000398578472	-0,3735406569883952	0,013937304142991818	0,3735406569883952
1	0	0	1	0	0	1	637591,80	-0,200000003	1,89954197	-0,00055586098404477037	-0,20010619664778768	0,000380110112	-0,43579708191423565	0,016260175061628483	0,43579708191423565
1	0	0	1	0	0	1	638711,82	-0,200000003	1,88397956	-0,00055586694207870304	-0,20010834149040912	0,000377000018	-0,4980540940526944	0,018583067889957446	0,4980540940526944
1	0	0	1	0	0	1	639831,84	-0,200000003	1,88773203	-0,00055586861691044435	-0,20010894442783229	0,000377752061	-0,56031105239574554	0,020905958711107421	0,56031105239574554
1	0	0	1	0	0	1	640951,86	-0,200000003	1,8875035	-0,00055586918652554342	-0,20010914948541738	0,000377706718	-0,62256804514962278	0,02322885081617159	0,62256804514962278
1	0	0	1	0	0	1	642071,88	-0,200000003	1,89359891	-0,00055586185834556819	-0,20010651139016461	0,000378921482	-0,68482494138139034	0,02555173931986607	0,68482494138139034
1	0	0	1	0	0	1	643191,90	-0,200000003	1,90563738	-0,0005558628053706553	-0,20010685231279411	0,000381331105	-0,74708200971025024	0,027874634244734451	0,74708200971025024
1	0	0	1	0	0	1	644311,92	-0,200000003	1,91975212	-0,00055585930515742963	-0,20010559225969424	0,000384153129	-0,8093384943667447	0,030197507392002118	0,8093384943667447
1	0	0	1	0	0	1	645431,94	-0,200000003	1,93561935	-0,00055587359097103277	-0,20011073505601958	0,000387338223	-0,87159602719256602	0,032520419647876659	0,87159602719256602
1	0	0	1	0	0	1	646551,97	-0,200000003	1,94619107	-0,00055585630642705491	-0,20010451273703072	0,000389441615	-0,93385297713530816	0,034843310155599808	0,93385297713530816
1	0	0	1	0	0	1	647671,99	-0,200000003	1,9542675	-0,00055586074730671123	-0,20010611142368669	0,000391060865	-0,99610939112745126	0,037166180666285517	0,99610939112745126
1	0	0	1	0	0	1	648792,01	-0,200000003	1,96575367	-0,00055586146561635866	-0,20010637000098602	0,000393359835	-1,0583654391495811	0,03948903752213799	1,0583654391495811
1	0	0	1	0	0	1	649912,03	-0,200000003	1,97455394	-0,0005558647474191255	-0,20010755143711517	0,000395123148	-1,1206217382873326	0,04181190374745193	1,1206217382873326
1	0	0	1	0	0	1	651032,05	-0,200000003	1,98196363	-0,00055585922780798547	-0,20010556441441725	0,000396601943	-1,1828781495693179	0,044134774157018003	1,1828781495693179
1	0	0	1	0	0	1	652152,07	-0,200000003	1,98438275	-0,00055585418143785664	-0,20010374774596634	0,000397082418	-1,2451346092433893	0,046457646372157882	1,2451346092433893
1	0	0	1	0	0	1	653272,09	-0,200000003	1,98434472	-0,00055585079985029165	-0,20010253040662026	0,000397072406	-1,3073906251623528	0,048780502030198048	1,3073906251623528
1	0	0	1	0	0	1	654392,11	-0,200000003	1,98388755	-0,00055586876091195482	-0,20010899626740262	0,000396993739	-1,369647018818052	0,051103371782103693	1,369647018818052
1	0	0	1	0	0	1	655512,13	-0,200000003	1,97861123	-0,00055585837669836141	-0,20010525802070605	0,000395930518	-1,4319030556944272	0,053426228222093075	1,4319030556944272
1	0	0	1	0	0	1	656632,15	-0,200000003	1,96988714	-0,00055585763840377331	-0,20010499223964518	0,000394184259	-1,4941591823744666	0,055749088012777894	1,4941591823744666
1	0	0	1	0	0	1	657752,18	-0,200000003	1,94982934	-0,00055585901405082803	-0,20010548746328554	0,000390171539	-1,5564154629431997	0,058071953545256794	1,5564154629431997
1	0	0	1	0	0	1	658872,20	-0,200000003	1,88866544	-0,00055586556677023565	-0,20010784639797603	0,000377936783	-1,6186717223080733	0,060394818286591181	1,6186717223080733
1	0	0	1	0	0	1	659992,22	-0,200000003	1,70900249	-0,00055585757271200422	-0,20010496859105238	0,000341979903	-1,6809280671829526	0,062717686218418842	1,6809280671829526
1	1	0	0	0	0	2	661097,90	0,200000003	2,31313634	0,00055536962006572218	0,19992930893694029	0,000462463737	-1,6912702796450816	0,063103568070633434	0,025546990234938758
1	1	0	0	0	0	2	662217,92	0,200000003	2,27088737	0,00055536284889363584	0,19992687136076218	0,000454011402	-1,6290694502866534	0,060782771497365952	0,087747819593368294
1	1	0	0	0	0	2	663337,94	0,200000003	2,26814437	0,00055535842916866138	0,19992528028033907	0,00045345939	-1,5668686703007789	0,058461976766254848	0,14994859957924154
1	1	0	0	0	0	2	664457,96	0,200000003	2,27124929	0,00055535665932711622	0,19992464315865645	0,00045407869	-1,5046680941716726	0,056141189641313843	0,21214917570834688
1	1	0	0	0	0	2	665577,98	0,200000003	2,27641129	0,00055535829997393818	0,19992523378042163	0,000455112051	-1,4424677159631155	0,053820409901054624	0,27434955391690365
1	1	0	0	0	0	2	666698,00	0,200000003	2,28184009	0,00055536251963261101	0,19992675281738198	0,000456200883	-1,380267256303975	0,051499627121764653	0,33655001357604563
1	1	0	0	0	0	2	667818,02	0,200000003	2,287745	0,00055535459760659277	0,19992390095320518	0,000457374903	-1,3180674875296294	0,049178870120315264	0,39874978235039123
1	1	0	0	0	0	2	668938,04	0,200000003	2,29376435	0,00055536595115148358	0,19992798815261616	0,000458587689	-1,2558670626194979	0,04685808863755753	0,46095020726052352
1	1	0	0	0	0	2	670058,06	0,200000003	2,29963112	0,00055535904010881978	0,19992550021233872	0,000459754898	-1,1936668525025576	0,044537315169022547	0,52315041737746394
1	1	0	0	0	0	2	671178,09	0,200000003	2,30589795	0,000555355077293184	0,19992407363713536	0,0004610045	-1,1314670357731338	0,042216556378304723	0,58535023410688922
1	1	0	0	0	0	2	672298,11	0,200000003	2,31256485	0,0005553553891364071	0,19992418589858765	0,000462337659	-1,069267022549371	0,039895790256118918	0,6475502473306505
1	1	0	0	0	0	2	673418,13	0,200000003	2,3193078	0,00055535024016019373	0,19992233229264835	0,000463681412	-1,0070670285719698	0,037575024852040742	0,7097502413080521
1	1	0	0	0	0	2	674538,15	0,200000003	2,32544136	0,00055536260545005402	0,1999267837227184	0,000464918005	-0,94486654809869235	0,035254241296147328	0,77195072178132966
1	1	0	0	0	0	2	675658,17	0,200000003	2,33003211	0,00055536444597774086	0,19992744630024371	0,000465837365	-0,88266586798980531	0,032933450291580896	0,8341514018902167
1	1	0	0	0	0	2	676778,19	0,200000003	2,33378458	0,0005553583643519216	0,19992525695140566	0,000466582482	-0,82046537643310157	0,030612666322149939	0,89635189344692045
1	1	0	0	0	0	2	677898,21	0,200000003	2,33584189	0,00055535326017191014	0,19992341948576048	0,000466989499	-0,75826596722843597	0,028291922736728768	0,95855130265158605
1	1	0	0	0	0	2	679018,23	0,200000003	2,33734655	0,00055535519553803738	0,19992411620448326	0,000467291946	-0,69606668986972826	0,025971184070657552	1,0207505800102934
1	1	0	0	0	0	2	680138,25	0,200000003	2,33871818	0,00055535382453352218	0,19992362264747098	0,000467564998	-0,63386687180153267	0,023650425229988352	1,0829503980784886
1	1	0	0	0	0	2	681258,27	0,200000003	2,34003234	0,00055535362494902477	0,19992355080305587	0,000467827573	-0,57166757278851507	0,021329685755965718	1,1451496970915069
1	1	0	0	0	0	2	682378,30	0,200000003	2,34132767	0,0005553652898131145	0,19992775007527395	0,000468096376	-0,5094675010821008	0,019008917451713555	1,2073497687979219
1	1	0	0	0	0	2	683498,32	0,200000003	2,34279442	0,00055536076395379168	0,19992612078720282	0,000468385813	-0,44726737172193242	0,016688146996322314	1,2695498981580904
1	1	0	0	0	0	2	684618,34	0,200000003	2,34388018	0,00055535342782818605	0,19992347984088646	0,000468596671	-0,38506750665770323	0,01436738640216791	1,3317497632223198
1	1	0	0	0	0	2	685738,36	0,200000003	2,34521341	0,0005553475467670295	0,19992136269862595	0,000468858256	-0,32286892771045946	0,01204667379476744	1,3939483421695635
1	1	0	0	0	0	2	686858,38	0,200000003	2,34738493	0,00055534472737378541	0,19992034772680774	0,000469290011	-0,2606702953654344	0,0097259591950239514	1,4561469745145898
1	1	0	0	0	0	2	687978,40	0,200000003	2,35016608	0,00055534977742946816	0,19992216572202461	0,000469850289	-0,19847109515582176	0,0074052234074892006	1,5183461747242032
1	1	0	0	0	0	2	689098,42	0,200000003	2,35365176	0,00055534165928430035	0,19991924324464269	0,000470540283	-0,13627230114697226	0,0050845027758510637	1,5805449687330518
1	1	0	0	0	0	2	690218,44	0,200000003	2,35723305	0,00055534876405861651	0,19992180090605898	0,00047126229	-0,074073478589600845	0,0027637810790291907	1,642743791290424
1	1	0	0	0	0	2	691338,46	0,200000003	2,36138535	0,00055536092501713178	0,19992617877822608	0,000472102751	-0,011873873093609021	0,00044303016971471834	1,704943396786415
1	1	0	0	0	0	2	692458,49	0,200000003	2,36618567	0,00055534950721677805	0,19992206844728282	0,000473052729	0,050325312899077274	-0,0018777050873673965	1,7671425827791011
1	1	0	0	0	0	2	693578,51	0,200000003	2,3706429	0,00055533895420614208	0,19991826942548278	0,000473934837	0,1125238004255512	-0,0041984142837360307	1,8293410703055747
1	1	0	0	0	0	2	694698,53	0,200000003	2,37635732	0,00055534449288745722	0,1999202633226241	0,000475081993	0,17472290174447184	-0,006519146381526103	1,8915401716244954
1	1	0	0	0	0	2	695818,55	0,200000003	2,38319564	0,00055535858202973997	0,19992533531860358	0,000476461195	0,23692232202194237	-0,0088398903800885171	1,9537395919019645
1	1	0	0	0	0	2	696637,84	0,200000003	2,38942456	0,0005153598000167145	0,19991999604158422	0,000477693742	0,28242106582795523	-0,010537509685202517	1,9992383357079763