File: Experimentelles/Rohdaten/Batteriemessungen/AlteZelle/Studenten_Batterietests/S vs Li GCPL 300µm/ECLab-Export/S vs Li GCPL 300µm_02_GCPL_C06_loop7.mpt
EC-Lab ASCII FILE
Nb header lines : 3
mode	ox/red	error	control changes	Ns changes	counter inc.	Ns	time/s	control/V/mA	Ewe/V	dq/mA.h	<I>/mA	P/W	(Q-Qo)/mA.h	x	Capacity/mA.h
1	0	0	1	1	0	1	494270,04	-0,200000003	2,33547997	0	0	0	0	0	0
1	0	0	1	0	0	1	495400,06	-0,200000003	2,26294422	-0,00055586558117800288	-0,20010775616066426	0,000452832697	-0,062810302558343693	0,0023435368378017536	0,062810302558343693
1	0	0	1	0	0	1	496530,08	-0,200000003	2,24031496	-0,00055586914683712858	-0,20010903978022221	0,000448307284	-0,12562342567327808	0,004687178914362185	0,12562342567327808
1	0	0	1	0	0	1	497660,11	-0,200000003	2,2144475	-0,00055587228027896755	-0,20011016779756438	0,000443133467	-0,18843686560587763	0,0070308328118156698	0,18843686560587763
1	0	0	1	0	0	1	498790,13	-0,200000003	2,17446518	-0,00055588361040833926	-0,20011424656094272	0,000435141468	-0,25125097773170973	0,0093745117897024346	0,25125097773170973
1	0	0	1	0	0	1	499920,15	-0,200000003	2,09766269	-0,00055587751713726259	-0,20011205302093235	0,000419767573	-0,31406593018469786	0,011718222121325219	0,31406593018469786
1	0	0	1	0	0	1	501050,17	-0,200000003	1,96487737	-0,00055587672099388307	-0,20011176642415258	0,000393195078	-0,37687987881833882	0,014061894999098514	0,37687987881833882
1	0	0	1	0	0	1	502180,19	-0,200000003	1,91868544	-0,00055585919407258432	-0,20010545684465725	0,000383939419	-0,43969326804185952	0,01640554700452809	0,43969326804185952
1	0	0	1	0	0	1	503310,21	-0,200000003	1,9096185	-0,00055586229020936627	-0,20010657144175539	0,000382127211	-0,50250577103905734	0,018749165943662013	0,50250577103905734
1	0	0	1	0	0	1	504440,24	-0,200000003	1,91792357	-0,00055586414430042112	-0,20010723890168326	0,000383790379	-0,56531880170994195	0,021092804571010656	0,56531880170994195
1	0	0	1	0	0	1	505570,26	-0,200000003	1,92769527	-0,00055586968766566784	-0,20010923446542938	0,000385749619	-0,6281323606377856	0,023436462908336688	0,6281323606377856
1	0	0	1	0	0	1	506700,28	-0,200000003	1,939448	-0,00055587572586205267	-0,20011140817660285	0,000388105662	-0,69094560685289613	0,025780109577930195	0,69094560685289613
1	0	0	1	0	0	1	507830,30	-0,200000003	1,95560098	-0,00055587685825344595	-0,20011181583664374	0,000391338865	-0,75375905373501158	0,028123763734679466	0,75375905373501158
1	0	0	1	0	0	1	508960,32	-0,200000003	1,96624887	-0,00055586775350984602	-0,20010853819205853	0,000393463182	-0,81657214707948787	0,030467404700464077	0,81657214707948787
1	0	0	1	0	0	1	510090,34	-0,200000003	1,9772588	-0,00055586917287111277	-0,20010904914645226	0,00039566739	-0,87938512552546816	0,032811041379231322	0,87938512552546816
1	0	0	1	0	0	1	511220,37	-0,200000003	1,98537326	-0,00055586388467748954	-0,20010714543922752	0,000397287367	-0,94219850362891827	0,035154692969756109	0,94219850362891827
1	0	0	1	0	0	1	512350,39	-0,200000003	1,99137354	-0,00055586996048192179	-0,2001093326867079	0,000398492441	-1,0050114665806669	0,037498329070412742	1,0050114665806669
1	0	0	1	0	0	1	513480,41	-0,200000003	1,99691653	-0,00055586346759398771	-0,20010699528739894	0,00039959696	-1,0678247098666507	0,039841975630716602	1,0678247098666507
1	0	0	1	0	0	1	514610,43	-0,200000003	2,00312638	-0,00055588869660927194	-0,20011607755336352	0,000400857796	-1,1306392132503458	0,042185669206960275	1,1306392132503458
1	0	0	1	0	0	1	515740,45	-0,200000003	2,00874543	-0,0005558865402175321	-0,20011530127660294	0,000401980709	-1,1934540377168126	0,044529374763233875	1,1934540377168126
1	0	0	1	0	0	1	516870,48	-0,200000003	2,01335526	-0,00055588764839619398	-0,20011570020392131	0,000402903999	-1,2562684927589902	0,046873066535790547	1,2562684927589902
1	0	0	1	0	0	1	518000,50	-0,200000003	2,01607919	-0,00055587428834620448	-0,20011089068319139	0,000403439393	-1,3190827641352794	0,049216751455525984	1,3190827641352794
1	0	0	1	0	0	1	519130,52	-0,200000003	2,01661253	-0,0005558889431233207	-0,20011616630603078	0,000403556769	-1,3818978298897187	0,051560466014578246	1,3818978298897187
1	0	0	1	0	0	1	520260,54	-0,200000003	2,01230764	-0,00055587981497910285	-0,20011288023738531	0,000402688689	-1,4447125623946099	0,053904168139641824	1,4447125623946099
1	0	0	1	0	0	1	521390,56	-0,200000003	1,99990714	-0,00055588306056211398	-0,20011404861778333	0,000400209508	-1,5075271900424797	0,056247866352348928	1,5075271900424797
1	0	0	1	0	0	1	522520,58	-0,200000003	1,96994424	-0,00055587409303668474	-0,20011082037777715	0,000394207163	-1,5703410485628403	0,058591535867874586	1,5703410485628403
1	0	0	1	0	0	1	523650,61	-0,200000003	1,9028945	-0,00055587586345026893	-0,20011145771439565	0,000380790996	-1,6331545807121475	0,060935193206057408	1,6331545807121475
1	0	0	1	0	0	1	524780,63	-0,200000003	1,76551867	-0,00055589905876500742	-0,20011990328502938	0,000353315438	-1,6959693069618742	0,063278895097732378	1,6959693069618742
1	1	0	0	0	0	2	525896,55	0,200000003	2,29065943	0,00055532459659129389	0,19991310079050381	0,000457932823	-1,7435555655618691	0,065054402386503334	0,0072191715154043507
1	1	0	0	0	0	2	527026,57	0,200000003	2,26566815	0,0005553258241415024	0,19991354270028067	0,000452937733	-1,6808037002019133	0,062713045919143091	0,069971036875360538
1	1	0	0	0	0	2	528156,59	0,200000003	2,25930595	0,0005553192904972368	0,19991119063251235	0,00045166054	-1,6180521101724064	0,06037169972473207	0,13272262690486672
1	1	0	0	0	0	2	529286,61	0,200000003	2,26153469	0,00055531557975543866	0,19990985479054954	0,000452103064	-1,5553006613968058	0,058030358800694208	0,19547407568046608
1	1	0	0	0	0	2	530416,64	0,200000003	2,26553488	0,0005553231606036425	0,19991258384465658	0,00045290892	-1,4925488826941299	0,055689005566633587	0,2582258543831415
1	1	0	0	0	0	2	531546,66	0,200000003	2,27039194	0,00055532908526973594	0,19991471668439958	0,000453884772	-1,4297964725910189	0,053347628774173798	0,32097826448625318
1	1	0	0	0	0	2	532676,68	0,200000003	2,27561116	0,00055533088748239814	0,19991536546877507	0,000454929628	-1,3670439025149315	0,051006246012907174	0,38373083456234061
1	1	0	0	0	0	2	533806,70	0,200000003	2,28100181	0,00055533589354157453	0,1999171676162377	0,000456011418	-1,3042907088098731	0,048664839983205171	0,44648402826739866
1	1	0	0	0	0	2	534936,72	0,200000003	2,28679252	0,0005553339176865088	0,19991645632177078	0,000457167451	-1,2415372067798514	0,04632342244948423	0,5092375302974199
1	1	0	0	0	0	2	536066,74	0,200000003	2,29250717	0,0005553411741314663	0,19991906859290208	0,000458315888	-1,1787831086489355	0,043981982674437466	0,57199162842833664
1	1	0	0	0	0	2	537196,76	0,200000003	2,29835486	0,00055535091977318125	0,19992257695803914	0,000459493021	-1,1160292102801533	0,041640550352784486	0,63474552679711949
1	1	0	0	0	0	2	538326,78	0,200000003	2,30446935	0,00055535047652820742	0,1999224173928449	0,000460715091	-1,0532747085324752	0,039299095518253658	0,69750002854479936
1	1	0	0	0	0	2	539456,81	0,200000003	2,31119347	0,00055533489814649024	0,19991680927142704	0,000462046417	-0,99052088399143706	0,036957665951213075	0,7602538530858368
1	1	0	0	0	0	2	540586,83	0,200000003	2,31755543	0,00055534603714942931	0,19992081924649488	0,000463327568	-0,9277672291065399	0,034616242714271219	0,82300750797073395
1	1	0	0	0	0	2	541716,85	0,200000003	2,32321286	0,00055534038351807328	0,19991878397742512	0,000464453886	-0,86501332703019213	0,032274810254283994	0,8857614100470816
1	1	0	0	0	0	2	542846,87	0,200000003	2,32755589	0,0005553529471101033	0,19992330677631683	0,000465332676	-0,80225878652179021	0,029933353973538432	0,94851595055548365
1	1	0	0	0	0	2	543976,89	0,200000003	2,3306036	0,00055535920960952838	0,19992556124308496	0,000465947232	-0,7395039916253065	0,02759188820123152	1,0112707454519674
1	1	0	0	0	0	2	545106,91	0,200000003	2,33226061	0,00055535622479352691	0,19992448672950173	0,000466276018	-0,67674894618512115	0,02525041308080224	1,0740257908921533
1	1	0	0	0	0	2	546236,93	0,200000003	2,33355594	0,00055534581470986214	0,19992073916975437	0,000466526224	-0,61399430784145485	0,022908953149691434	1,1367804292358203
1	1	0	0	0	0	2	547366,95	0,200000003	2,33456564	0,00055534899517976576	0,19992188411741978	0,000466730766	-0,55124010929067059	0,020567509627844362	1,1995346277866042
1	1	0	0	0	0	2	548496,98	0,200000003	2,33530831	0,00055534323684374496	0,1999198111553785	0,000466874393	-0,48848638280529894	0,018226083719392534	1,2622883542719752
1	1	0	0	0	0	2	549627,00	0,200000003	2,3360703	0,0005553461135700345	0,19992084675274144	0,000467029138	-0,42573241443750726	0,015884648785982403	1,3250423226397666
1	1	0	0	0	0	2	550757,02	0,200000003	2,33683228	0,000555347512844536	0,1999213504867576	0,000467182661	-0,36297804671676512	0,01354319895217675	1,3877966903605093
1	1	0	0	0	0	2	551887,04	0,200000003	2,3378799	0,0005553463784356912	0,19992094210724205	0,000467391161	-0,30022395985292371	0,011201759597519682	1,4505507772243494
1	1	0	0	0	0	2	553017,06	0,200000003	2,33923244	0,00055534933217366534	0,19992200542829085	0,000467664038	-0,2374692685035721	0,008860297688695488	1,5133054685737008
1	1	0	0	0	0	2	554147,08	0,200000003	2,34121346	0,00055534897957245504	0,19992187849889341	0,000468059792	-0,1747150425620208	0,0065188531448620723	1,5760596945152522
1	1	0	0	0	0	2	555277,10	0,200000003	2,34399438	0,00055533981066693862	0,19991857775488909	0,000468608021	-0,11196104127786416	0,0041774169832981056	1,6388136957994086
1	1	0	0	0	0	2	556407,12	0,200000003	2,34694695	0,00055534817473259232	0,19992158875500147	0,000469205377	-0,049206865713402816	0,0018359743191016483	1,7015678713638698
1	1	0	0	0	0	2	557537,15	0,200000003	2,35048985	0,00055535944395263987	0,19992564560502096	0,000469923194	0,013547635324479616	-0,00050548048894575366	1,7643223724017514
1	1	0	0	0	0	2	558667,17	0,200000003	2,35460424	0,00055534220605095226	0,19991944007694125	0,000470731175	0,076301804699532493	-0,0028469229222070595	1,8270765417768045
1	1	0	0	0	0	2	559797,19	0,200000003	2,35883307	0,00055535062434607085	0,19992247059929437	0,000471583742	0,13905617148281122	-0,0051883727210346893	1,8898309085600842
1	1	0	0	0	0	2	560927,21	0,200000003	2,36378551	0,00055535664174622963	0,1999246368296561	0,000472578948	0,20181085128120733	-0,0075298341988772032	1,95258558835848
1	1	0	0	0	0	2	561766,50	0,200000003	2,36744285	0,0005153791899780432	0,1999275176608017	0,000473316963	0,24842071297447114	-0,0092689108062784243	1,9991954500517443