File: Experimentelles/Rohdaten/Batteriemessungen/AlteZelle/Studenten_Batterietests/S vs Li GCPL 300µm/ECLab-Export/S vs Li GCPL 300µm_01_OCV_C06.mpt
EC-Lab ASCII FILE
Nb header lines : 48

Open Circuit Voltage

Run on channel : 6 (SN 5437)
Grouped channel(s) : 6
User :
CE vs. WE compliance from -10 V to 10 V
Electrode connection : standard
Ewe ctrl range : min = 0,00 V, max = 5,00 V
Acquisition started on : 01.23.2015 15:08:00
Saved on :
	File : S vs Li GCPL 300µm_01_OCV_C06.mpr
	Directory : C:\Hupfer\Studenten Batterietests\S vs Li GCPL 300µm\
	Host : 192.168.0.2
Device : VMP3 (SN 0324)
Address : 192.168.0.1
EC-Lab for windows v10.33 (software)
Internet server v10.33 (firmware)
Command interpretor v10.32 (firmware)
Electrode material : S vs Li
Initial state : charged
Electrolyte : LP30
Comments : 300µm
Mass of active material : 0,001 mg
 at x = 0,000
Molecular weight of active material (at x = 0) : 0,001 g/mol
Atomic weight of intercalated ion : 0,001 g/mol
Acquisition started at : xo = 0,000
Number of e- transfered per intercalated ion : 1
for DX = 1, DQ = 26,801 mA.h
Battery capacity : 0,000 A.h
Reference electrode : Li+/Li (-3,020 V)
Electrode surface area : 0,001 cm²
Characteristic mass : 0,001 g
Create one data file per loop
tR (h:m:s)          1:00:0,0000
dER/dt (mV/h)       0,0
dER (mV)            0,00
dtR (s)             5,0000
E range min (V)     0,000
E range max (V)     5,000

Number of loops : 1
Loop 0 from point number 0 to 720

mode	error	time/s	Ewe/V
3	1	0,0000	2,35784245
3	0	15,0000	2,35784245
3	0	30,0000	2,35753775
3	0	45,0000	2,35765195
3	0	60,0000	2,35770917
3	0	75,0000	2,35765195
3	0	90,0000	2,35774732
3	0	105,0000	2,35746145
3	0	120,0000	2,35759497
3	0	135,0000	2,35753775
3	0	150,0000	2,3573854
3	0	165,0000	2,35736632
3	0	180,0000	2,3574996
3	0	195,0000	2,3573091
3	0	210,0000	2,35725188
3	0	225,0000	2,35725188
3	0	240,0000	2,35717583
3	0	255,0000	2,3573091
3	0	270,0000	2,35709953
3	0	285,0000	2,3571949
3	0	300,0000	2,35711861
3	0	315,0000	2,35729003
3	0	330,0000	2,35706162
3	0	345,0000	2,35713768
3	0	360,0000	2,35709953
3	0	375,0000	2,35702348
3	0	390,0000	2,35711861
3	0	405,0000	2,35698533
3	0	420,0000	2,35698533
3	0	435,0000	2,35692811
3	0	450,0000	2,3570044
3	0	465,0000	2,35696626
3	0	480,0000	2,35690904
3	0	495,0000	2,35685205
3	0	510,0000	2,35673761
3	0	525,0000	2,35681391
3	0	540,0000	2,35681391
3	0	555,0000	2,35698533
3	0	570,0000	2,35683298
3	0	585,0000	2,35677576
3	0	600,0000	2,35683298
3	0	615,0000	2,35671854
3	0	630,0000	2,35677576
3	0	645,0000	2,35664248
3	0	660,0000	2,35675669
3	0	675,0000	2,35662341
3	0	690,0000	2,35671854
3	0	705,0000	2,35662341
3	0	720,0000	2,35660434
3	0	735,0000	2,35652804
3	0	750,0000	2,35654712
3	0	765,0000	2,35645199
3	0	780,0000	2,35633779
3	0	795,0000	2,35643291
3	0	810,0000	2,35643291
3	0	825,0000	2,35639477
3	0	840,0000	2,35635662
3	0	855,0000	2,35643291
3	0	870,0000	2,35637569
3	0	885,0000	2,35620427
3	0	900,0000	2,35628057
3	0	915,0000	2,35614729
3	0	930,0000	2,35616636
3	0	945,0000	2,35620427
3	0	960,0000	2,35620427
3	0	975,0000	2,35609007
3	0	990,0000	2,35597587
3	0	1005,0000	2,35597587
3	0	1020,0000	2,3561852
3	0	1035,0000	2,35589957
3	0	1050,0000	2,35603285
3	0	1065,0000	2,35591865
3	0	1080,0000	2,35593772
3	0	1095,0000	2,35589957
3	0	1110,0000	2,35578537
3	0	1125,0000	2,35570908
3	0	1140,0000	2,35574722
3	0	1155,0000	2,35563278
3	0	1170,0000	2,3557663
3	0	1185,0000	2,35595679
3	0	1200,0000	2,35548043
3	0	1215,0000	2,3555758
3	0	1230,0000	2,35559487
3	0	1245,0000	2,3555758
3	0	1260,0000	2,35559487
3	0	1275,0000	2,35559487
3	0	1290,0000	2,35563278
3	0	1305,0000	2,35540438
3	0	1320,0000	2,35549951
3	0	1335,0000	2,35542345
3	0	1350,0000	2,35551858
3	0	1365,0000	2,35548043
3	0	1380,0000	2,35536623
3	0	1395,0000	2,35528994
3	0	1410,0000	2,35528994
3	0	1425,0000	2,35527086
3	0	1440,0000	2,35528994
3	0	1455,0000	2,35523295
3	0	1470,0000	2,35515666
3	0	1485,0000	2,35511851
3	0	1500,0000	2,35511851
3	0	1515,0000	2,35509944
3	0	1530,0000	2,3550806
3	0	1545,0000	2,35498524
3	0	1560,0000	2,35502338
3	0	1575,0000	2,35498524
3	0	1590,0000	2,35504246
3	0	1605,0000	2,35502338
3	0	1620,0000	2,35490894
3	0	1635,0000	2,35479474
3	0	1650,0000	2,35490894
3	0	1665,0000	2,35475659
3	0	1680,0000	2,35481381
3	0	1695,0000	2,35469961
3	0	1710,0000	2,35477567
3	0	1725,0000	2,35464239
3	0	1740,0000	2,35460424
3	0	1755,0000	2,35468054
3	0	1770,0000	2,3545661
3	0	1785,0000	2,35445189
3	0	1800,0000	2,3545661
3	0	1815,0000	2,35435677
3	0	1830,0000	2,3543756
3	0	1845,0000	2,35458517
3	0	1860,0000	2,35433769
3	0	1875,0000	2,35445189
3	0	1890,0000	2,35439467
3	0	1905,0000	2,35433769
3	0	1920,0000	2,35428047
3	0	1935,0000	2,35422325
3	0	1950,0000	2,35420418
3	0	1965,0000	2,35428047
3	0	1979,9999	2,35416627
3	0	1994,9999	2,35416627
3	0	2009,9999	2,3540709
3	0	2024,9999	2,35420418
3	0	2039,9999	2,35403275
3	0	2054,9999	2,35416627
3	0	2069,9999	2,35389948
3	0	2084,9999	2,3540709
3	0	2099,9999	2,35399485
3	0	2114,9999	2,35401368
3	0	2129,9999	2,35399485
3	0	2144,9999	2,3537662
3	0	2159,9999	2,35388041
3	0	2174,9999	2,35393763
3	0	2189,9999	2,35384226
3	0	2204,9999	2,35382342
3	0	2219,9999	2,35389948
3	0	2234,9999	2,35367084
3	0	2249,9999	2,35372806
3	0	2264,9999	2,35368991
3	0	2279,9999	2,35338521
3	0	2294,9999	2,35355663
3	0	2309,9999	2,35353756
3	0	2324,9999	2,35357571
3	0	2339,9999	2,35357571
3	0	2354,9999	2,35351849
3	0	2369,9999	2,35353756
3	0	2384,9999	2,35355663
3	0	2399,9999	2,3534615
3	0	2414,9999	2,35348034
3	0	2429,9999	2,35336614
3	0	2444,9999	2,35330892
3	0	2459,9999	2,35332799
3	0	2474,9999	2,35321379
3	0	2489,9999	2,35336614
3	0	2504,9999	2,35336614
3	0	2519,9999	2,35327101
3	0	2534,9999	2,35323286
3	0	2549,9999	2,35325193
3	0	2564,9999	2,35317564
3	0	2579,9999	2,35319471
3	0	2594,9999	2,35302329
3	0	2609,9999	2,35327101
3	0	2624,9999	2,35296607
3	0	2639,9999	2,35287094
3	0	2654,9999	2,35283279
3	0	2669,9999	2,35298514
3	0	2684,9999	2,35290909
3	0	2699,9999	2,3527565
3	0	2714,9999	2,35277557
3	0	2729,9999	2,3526423
3	0	2744,9999	2,352947
3	0	2759,9999	2,35302329
3	0	2774,9999	2,35287094
3	0	2789,9999	2,35260415
3	0	2804,9999	2,35266137
3	0	2819,9999	2,3526423
3	0	2834,9999	2,35262322
3	0	2849,9999	2,35247087
3	0	2864,9999	2,35248995
3	0	2879,9999	2,35250902
3	0	2894,9999	2,3525281
3	0	2909,9999	2,35260415
3	0	2924,9999	2,35241365
3	0	2939,9999	2,35243273
3	0	2954,9999	2,35228038
3	0	2969,9999	2,35235667
3	0	2984,9999	2,35248995
3	0	2999,9999	2,35222316
3	0	3014,9999	2,35231853
3	0	3029,9999	2,35224223
3	0	3044,9999	2,35210896
3	0	3059,9999	2,35228038
3	0	3074,9999	2,35224223
3	0	3089,9999	2,35199475
3	0	3104,9999	2,35216618
3	0	3119,9999	2,35193753
3	0	3134,9999	2,35210896
3	0	3149,9999	2,35212803
3	0	3164,9999	2,35212803
3	0	3179,9999	2,35191846
3	0	3194,9999	2,35191846
3	0	3209,9999	2,35199475
3	0	3224,9999	2,35201383
3	0	3239,9999	2,35203266
3	0	3254,9999	2,3518424
3	0	3269,9999	2,35188031
3	0	3284,9999	2,35176611
3	0	3299,9999	2,35186124
3	0	3314,9999	2,35178518
3	0	3329,9999	2,35174704
3	0	3344,9999	2,35174704
3	0	3359,9999	2,35170889
3	0	3374,9999	2,35170889
3	0	3389,9999	2,35165191
3	0	3404,9999	2,35174704
3	0	3419,9999	2,35159469
3	0	3434,9999	2,35170889
3	0	3449,9999	2,35142326
3	0	3464,9999	2,35161376
3	0	3479,9999	2,35151839
3	0	3494,9999	2,35151839
3	0	3509,9999	2,35149932
3	0	3524,9999	2,35144234
3	0	3539,9999	2,35121369
3	0	3554,9999	2,35128999
3	0	3569,9999	2,35125184
3	0	3584,9999	2,35136604
3	0	3599,9999	2,35109949