File: Experimentelles/Rohdaten/Batteriemessungen/AlteZelle/Studenten_Batterietests/S vs Li GCPL 300µm/ECLab-Export/S vs Li GCPL 300µm_02_GCPL_C06_loop2.mpt
EC-Lab ASCII FILE
Nb header lines : 3
mode	ox/red	error	control changes	Ns changes	counter inc.	Ns	time/s	control/V/mA	Ewe/V	dq/mA.h	<I>/mA	P/W	(Q-Qo)/mA.h	x	Capacity/mA.h
1	0	0	1	1	0	1	147600,09	-0,200000003	2,32591772	0	0	0	0	0	0
1	0	0	1	0	0	1	148810,09	-0,200000003	2,26883006	-0,00055586390905165011	-0,200110975948792	0,000454017805	-0,06725625188353696	0,0025094211847671571	0,06725625188353696
1	0	0	1	0	0	1	150020,09	-0,200000003	2,24842954	-0,00055586434489405805	-0,20011113285203434	0,000449935789	-0,13451510328206531	0,0050189393609337293	0,13451510328206531
1	0	0	1	0	0	1	151230,09	-0,200000003	2,21999049	-0,0005558524956463111	-0,20010686712351286	0,000444235338	-0,20177432695299242	0,007528471427084023	0,20177432695299242
1	0	0	1	0	0	1	152440,09	-0,200000003	2,173208	-0,00055585539553397229	-0,20010791108290752	0,000434876099	-0,2690328774709057	0,010037978376990307	0,2690328774709057
1	0	0	1	0	0	1	153650,09	-0,200000003	2,11187267	-0,00055584548956569702	-0,20010434493488637	0,000422594894	-0,33629087117452282	0,012547464551406558	0,33629087117452282
1	0	0	1	0	0	1	154860,09	-0,200000003	2,05449939	-0,00055584853977710003	-0,20010544301081968	0,000411116518	-0,4035481194276761	0,015056922912063734	0,4035481194276761
1	0	0	1	0	0	1	156070,09	-0,200000003	2,04331803	-0,00055584096900208128	-0,20010271753223936	0,000408873486	-0,47080546424884019	0,017566384875803229	0,47080546424884019
1	0	0	1	0	0	1	157280,09	-0,200000003	2,05406141	-0,0005558584194456537	-0,2001089996909425	0,000411036162	-0,53806399615381837	0,020075891131235882	0,53806399615381837
1	0	0	1	0	0	1	158490,09	-0,200000003	2,06354737	-0,00055586330964747398	-0,20011076016099274	0,00041293804	-0,60532283499128704	0,022585408838732426	0,60532283499128704
1	0	0	1	0	0	1	159700,09	-0,200000003	2,07013798	-0,0005558652701104681	-0,20011146592988976	0,000414258335	-0,67258192803818867	0,025094936031124701	0,67258192803818867
1	0	0	1	0	0	1	160910,09	-0,200000003	2,07488108	-0,00055585142614609658	-0,20010648210349584	0,000415197166	-0,73984121443037299	0,027604470437489437	0,73984121443037299
1	0	0	1	0	0	1	162120,09	-0,200000003	2,07853818	-0,00055585630096164013	-0,20010823703681696	0,00041593262	-0,80710034463756979	0,030113999016382291	0,80710034463756979
1	0	0	1	0	0	1	163330,09	-0,200000003	2,08118606	-0,00055586088317549894	-0,200109886633548	0,000416465919	-0,87435933729185434	0,032623522462991046	0,87435933729185434
1	0	0	1	0	0	1	164540,09	-0,200000003	2,0835669	-0,0005558675730907255	-0,20011229500265277	0,000416947354	-0,94161885963661645	0,035133065673063693	0,94161885963661645
1	0	0	1	0	0	1	165750,09	-0,200000003	2,08547187	-0,00055586506677998432	-0,2001113927309271	0,000417326693	-1,0088785481821973	0,037642615084312352	1,0088785481821973
1	0	0	1	0	0	1	166960,09	-0,200000003	2,08655763	-0,00055586021495196544	-0,2001096460731136	0,000417540316	-1,0761380724983766	0,040152158367941229	1,0761380724983766
1	0	0	1	0	0	1	168170,09	-0,200000003	2,08705282	-0,00055585581896371309	-0,20010806351759034	0,000417636096	-1,1433972150117744	0,042661687405994982	1,1433972150117744
1	0	0	1	0	0	1	169380,09	-0,200000003	2,08655763	-0,00055586879254215296	-0,20011273400509795	0,000417546747	-1,210656613054773	0,045171225978201709	1,210656613054773
1	0	0	1	0	0	1	170590,09	-0,200000003	2,08455753	-0,00055587058789365824	-0,20011338033153872	0,00041714785	-1,2779161367836254	0,047680769239916634	1,2779161367836254
1	0	0	1	0	0	1	171800,09	-0,200000003	2,08101463	-0,00055585627345658003	-0,20010822713499686	0,000416428142	-1,3451756373028858	0,05019031163565047	1,3451756373028858
1	0	0	1	0	0	1	173010,09	-0,200000003	2,07440472	-0,00055585495883226387	-0,20010775387031709	0,00041510447	-1,4124344265196986	0,052699827491733632	1,4124344265196986
1	0	0	1	0	0	1	174220,09	-0,200000003	2,06396627	-0,00055585222620599808	-0,2001067701250153	0,000413013622	-1,4796928925635427	0,05520933128979881	1,4796928925635427
1	0	0	1	0	0	1	175430,09	-0,200000003	2,04840398	-0,0005558745594579312	-0,20011481009445331	0,000409915985	-1,546952054278081	0,057718861044272934	1,546952054278081
1	0	0	1	0	0	1	176640,09	-0,200000003	2,02657461	-0,00055585824722879462	-0,20010893769288294	0,000405535684	-1,6142116081872016	0,060228405432054246	1,6142116081872016
1	0	0	1	0	0	1	177850,09	-0,200000003	1,99640226	-0,00055585038798716333	-0,20010610836633837	0,000399492274	-1,6814708070559968	0,062737936572803661	1,6814708070559968
1	0	0	1	0	0	1	179060,10	-0,200000003	1,95489609	-0,00055586139175958099	-0,20011006972378893	0,000391194393	-1,7487297315587872	0,065247457476588531	1,7487297315587872
1	0	0	1	0	0	1	180270,10	-0,200000003	1,90820897	-0,00055585778457091917	-0,20010877113607382	0,000381849357	-1,8159881184299936	0,067756958320616166	1,8159881184299936
1	0	0	1	0	0	1	181480,10	-0,200000003	1,8595407	-0,00055586115190469555	-0,20010998337604365	0,00037211267	-1,883247152811095	0,070266483324108544	1,883247152811095
1	0	0	1	0	0	1	182690,10	-0,200000003	1,77513802	-0,000555857289681832	-0,20010859297603027	0,000355220371	-1,9505068934825597	0,072776034680244019	1,9505068934825597
1	1	0	0	0	0	2	183890,10	0,200000003	2,29873586	0,00055533689184983565	0,19992124978582378	0,000459566159	-1,98498562866612	0,074062482647095142	0,016104899360618659
1	1	0	0	0	0	2	185100,10	0,200000003	2,25361061	0,00055534289448708294	0,19992341073489466	0,000450549531	-1,917788788087592	0,07155527817799721	0,083301739939147456
1	1	0	0	0	0	2	186310,10	0,200000003	2,24642944	0,000555338150266144	0,19992170281562387	0,000449109997	-1,8505923827735626	0,069048089949202944	0,15049814525317494
1	1	0	0	0	0	2	187520,10	0,200000003	2,24783897	0,00055534181198229389	0,19992302103323158	0,000449394749	-1,783396057635808	0,066540904711893286	0,21769447039092835
1	1	0	0	0	0	2	188730,10	0,200000003	2,25069618	0,0005553581644487049	0,19992890792021846	0,000449979241	-1,716198881613528	0,064033687726937984	0,28489164641320848
1	1	0	0	0	0	2	189940,10	0,200000003	2,25370574	0,00055535704610165626	0,19992850531534397	0,000450580032	-1,6490011930679155	0,061526451619048026	0,35208933495882118
1	1	0	0	0	0	2	191150,10	0,200000003	2,2572298	0,0005553522156468697	0,1999267663518929	0,000451280648	-1,5818037737155869	0,059019225555121434	0,41928675431114995
1	1	0	0	0	0	2	192360,10	0,200000003	2,26067758	0,0005553551545722617	0,19992782436486845	0,000451972359	-1,5146060183916672	0,056511986955643059	0,48648450963507078
1	1	0	0	0	0	2	193570,10	0,200000003	2,26446795	0,0005553496258945929	0,19992583404121907	0,000452725653	-1,447407757473321	0,054004729491756845	0,55368277055341574
1	1	0	0	0	0	2	194780,10	0,200000003	2,2682395	0,00055536055723163821	0,19992976932193968	0,00045348861	-1,3802098093686552	0,051497483699369645	0,62088071865808128
1	1	0	0	0	0	2	195990,10	0,200000003	2,27189684	0,00055535968101686906	0,19992945388467216	0,000454219087	-1,3130117294337018	0,048990232988217158	0,68807879859303629
1	1	0	0	0	0	2	197200,10	0,200000003	2,27585888	0,00055534954998890554	0,19992580671517594	0,000455002912	-1,2458136388190912	0,046482981878592294	0,75527688920764685
1	1	0	0	0	0	2	198410,10	0,200000003	2,27983999	0,00055536226538320378	0,19993038425640707	0,000455809291	-1,1786155344904592	0,043975730257278861	0,82247499353628058
1	1	0	0	0	0	2	199620,10	0,200000003	2,28418303	0,00055535884408983917	0,19992915259098854	0,000456674781	-1,1114170710707909	0,041468465237796058	0,88967345695594931
1	1	0	0	0	0	2	200830,10	0,200000003	2,28856397	0,00055536440500534246	0,19993115452025651	0,00045755523	-1,0442183091757928	0,038961189081797402	0,95687221885094797
1	1	0	0	0	0	2	202040,10	0,200000003	2,29334521	0,00055535828748097018	0,19992895221182704	0,000458506111	-0,97702009423281459	0,036453933333313984	1,0240704337939259
1	1	0	0	0	0	2	203250,10	0,200000003	2,29829764	0,00055535854492502074	0,19992904489167075	0,000459496456	-0,90982154130924237	0,033946664974320186	1,0912689867174971
1	1	0	0	0	0	2	204460,10	0,200000003	2,30361223	0,00055537041840619514	0,19993331934422477	0,000460568845	-0,84262220766830848	0,031439367485711936	1,1584683203584314
1	1	0	0	0	0	2	205670,10	0,200000003	2,30907893	0,00055536359900815616	0,19993086436131478	0,000461656135	-0,77542309298530304	0,028932078166718394	1,2256674350414374
1	1	0	0	0	0	2	206880,10	0,200000003	2,31488872	0,0005553680004287097	0,19993244887246618	0,000462821365	-0,70822438451253798	0,026424804003975082	1,2928661435142029
1	1	0	0	0	0	2	208090,10	0,200000003	2,31980324	0,00055536932444655232	0,19993292551881494	0,000463805045	-0,6410259081075689	0,023917538499993248	1,3600646199191712
1	1	0	0	0	0	2	209300,10	0,200000003	2,32363176	0,00055536052998983194	0,19992975951489098	0,000464563142	-0,57382717900730253	0,021410263567610118	1,4272633490194371
1	1	0	0	0	0	2	210510,10	0,200000003	2,326051	0,00055535433486435149	0,19992752927006698	0,000465041638	-0,5066289781306025	0,018903008343958454	1,4944615498961379
1	1	0	0	0	0	2	211720,10	0,200000003	2,32740331	0,00055536824173231917	0,199932535741752	0,000465323654	-0,4394299254652713	0,016395721338927722	1,5616606025614678
1	1	0	0	0	0	2	212930,10	0,200000003	2,32820344	0,00055536536911709446	0,1999315016004329	0,000465481222	-0,37223129708163149	0,013888450164417349	1,6288592309451078
1	1	0	0	0	0	2	214140,10	0,200000003	2,32968926	0,00055536382463077696	0,19993094558544563	0,000465776975	-0,30503209703043142	0,011381157660221685	1,6960584309963082
1	1	0	0	0	0	2	215350,10	0,200000003	2,33085108	0,00055536433071146413	0,19993112777446448	0,000466009689	-0,23783266715346902	0,008873856580917824	1,7632578608732691
1	1	0	0	0	0	2	216560,10	0,200000003	2,33237505	0,00055536785788337389	0,19993239755615334	0,000466317346	-0,17063279968639594	0,0063665391745385882	1,8304577283403424
1	1	0	0	0	0	2	217770,10	0,200000003	2,3340323	0,00055536817058258592	0,19993251012785203	0,000466648926	-0,10343346301474294	0,0038592415728501376	1,8976570650119968
1	1	0	0	0	0	2	218980,10	0,200000003	2,33614659	0,00055536585649434067	0,19993167705621408	0,000467069709	-0,036234036440905984	0,0013519406167903286	1,9648564915858326
1	1	0	0	0	0	2	219600,10	0,200000003	2,33736563	0,00055535793215284742	0,19992882429372288	0,00046730676	-0,0018014119646172387	6,721310242401504E-005	1,9992891160621216