File: Experimentelles/Rohdaten/Batteriemessungen/AlteZelle/Studenten_Batterietests/S vs Li GCPL 300µm/ECLab-Export/S vs Li GCPL 300µm_04_OCV_C06_loop0.mpt
EC-Lab ASCII FILE
Nb header lines : 3
mode	error	time/s	Ewe/V
3	0	764356,66	2,36203313
3	0	764416,66	2,3472898
3	0	764476,66	2,3437469
3	0	764536,66	2,34109902
3	0	764596,66	2,33923244
3	0	764656,66	2,33753705
3	0	764716,66	2,33633709
3	0	764776,66	2,33496547
3	0	764836,66	2,33378458
3	0	764896,66	2,33275604
3	0	764956,66	2,33180356
3	0	765016,66	2,33098459
3	0	765076,66	2,33003211
3	0	765136,66	2,32913685
3	0	765196,66	2,32826066
3	0	765256,66	2,3277843
3	0	765316,66	2,32730818
3	0	765376,66	2,32666063
3	0	765436,66	2,32587957
3	0	765496,66	2,3253653
3	0	765556,66	2,32483196
3	0	765616,66	2,32391763
3	0	765676,66	2,32370806
3	0	765736,66	2,32311749
3	0	765796,66	2,32256508
3	0	765856,66	2,32218409
3	0	765916,66	2,32161283
3	0	765976,66	2,32107949
3	0	766036,66	2,32039356
3	0	766096,66	2,32022214
3	0	766156,66	2,31957459
3	0	766216,66	2,3191936
3	0	766276,66	2,31873655
3	0	766336,66	2,31837463
3	0	766396,66	2,31789827
3	0	766456,66	2,31782222
3	0	766516,66	2,31734586
3	0	766576,67	2,31717443
3	0	766636,67	2,31685066
3	0	766696,67	2,31627917
3	0	766756,67	2,31580305
3	0	766816,67	2,3156507
3	0	766876,67	2,31519341
3	0	766936,67	2,31481242
3	0	766996,67	2,31456494
3	0	767056,67	2,3143363
3	0	767116,67	2,3138411
3	0	767176,67	2,31351733
3	0	767236,67	2,31342196
3	0	767296,67	2,31296492
3	0	767356,67	2,31275535
3	0	767416,67	2,3124125
3	0	767476,67	2,31218386
3	0	767536,67	2,3119173
3	0	767596,67	2,31161237
3	0	767656,67	2,3112886
3	0	767716,67	2,3110981
3	0	767776,67	2,31088853
3	0	767836,67	2,3104887
3	0	767896,67	2,31026006
3	0	767956,67	2,31012678
3	0	768016,67	2,3097837
3	0	768076,67	2,30949807
3	0	768136,67	2,30921245
3	0	768196,67	2,3089838
3	0	768256,67	2,30883145
3	0	768316,67	2,30860281
3	0	768376,67	2,30827904
3	0	768436,67	2,30791712
3	0	768496,67	2,30787897
3	0	768556,67	2,30759335
3	0	768616,67	2,30749798
3	0	768676,67	2,30721235
3	0	768736,67	2,30704093
3	0	768796,67	2,30675507
3	0	768856,67	2,30664086
3	0	768916,67	2,30650759
3	0	768976,67	2,30629802
3	0	769036,67	2,3059361
3	0	769096,67	2,30582166
3	0	769156,67	2,30566931
3	0	769216,67	2,30540276
3	0	769276,67	2,30509782
3	0	769336,67	2,30490756
3	0	769396,67	2,30483127
3	0	769456,67	2,30475497
3	0	769516,67	2,30458355
3	0	769576,67	2,30439305
3	0	769636,67	2,30408835
3	0	769696,67	2,3038218
3	0	769756,67	2,30385971
3	0	769816,67	2,30359316
3	0	769876,67	2,30336452
3	0	769936,67	2,30330729
3	0	769996,67	2,30304074
3	0	770056,67	2,30298352
3	0	770116,67	2,30279303
3	0	770176,67	2,30258346
3	0	770236,67	2,30243111
3	0	770296,67	2,30216455
3	0	770356,67	2,30210733
3	0	770416,67	2,30201221
3	0	770476,67	2,30184078
3	0	770536,67	2,30157399
3	0	770596,67	2,3013835
3	0	770656,67	2,30128837
3	0	770716,67	2,30132627
3	0	770776,67	2,30111694
3	0	770836,67	2,30094552
3	0	770896,67	2,30065966
3	0	770956,67	2,30067873
3	0	771016,67	2,30060244
3	0	771076,67	2,30033588
3	0	771136,67	2,30035496
3	0	771196,67	2,29999304
3	0	771256,67	2,30008817
3	0	771316,68	2,29968834
3	0	771376,68	2,29961205
3	0	771436,68	2,29963112
3	0	771496,68	2,29947877
3	0	771556,68	2,29947877
3	0	771616,68	2,29930735
3	0	771676,68	2,29894543
3	0	771736,68	2,29890728
3	0	771796,68	2,29867864
3	0	771856,68	2,29867864
3	0	771916,68	2,29854536
3	0	771976,68	2,29846907
3	0	772036,68	2,29831672
3	0	772096,68	2,29822159
3	0	772156,68	2,29822159
3	0	772216,68	2,29808807
3	0	772276,68	2,29806924
3	0	772336,68	2,29801202
3	0	772396,68	2,2977643
3	0	772456,68	2,29766917
3	0	772516,68	2,2975738
3	0	772576,68	2,2975359
3	0	772636,68	2,29755473
3	0	772696,68	2,29738331
3	0	772756,68	2,2971549
3	0	772816,68	2,29717398
3	0	772876,68	2,29692626
3	0	772936,68	2,29679298
3	0	772996,68	2,29660249
3	0	773056,68	2,29656434
3	0	773116,68	2,29652619
3	0	773176,68	2,29629755
3	0	773236,68	2,29641199
3	0	773296,68	2,2963357
3	0	773356,68	2,29608822
3	0	773416,68	2,29612613
3	0	773476,68	2,29578328
3	0	773536,68	2,2959168
3	0	773596,68	2,2957263
3	0	773656,68	2,29566908
3	0	773716,68	2,29559278
3	0	773776,68	2,29555488
3	0	773836,68	2,29534531
3	0	773896,68	2,29521179
3	0	773956,68	2,29511666
3	0	774016,68	2,29509759
3	0	774076,68	2,29504037
3	0	774136,68	2,29486895
3	0	774196,68	2,29458332
3	0	774256,68	2,29458332
3	0	774316,68	2,29445004
3	0	774376,68	2,29456425
3	0	774436,68	2,29445004
3	0	774496,68	2,29437375
3	0	774556,68	2,29424047
3	0	774616,68	2,29399276
3	0	774676,68	2,2940309
3	0	774736,68	2,29404998
3	0	774796,68	2,29395461
3	0	774856,68	2,29380226
3	0	774916,68	2,29376435
3	0	774976,68	2,29376435
3	0	775036,68	2,29361176
3	0	775096,68	2,29336429
3	0	775156,65	2,29338336