File: Experimentelles/Rohdaten/Batteriemessungen/AlteZelle/Studenten_Batterietests/S vs Li GCPL 300µm/ECLab-Export/S vs Li GCPL 300µm_02_GCPL_C06_loop1.mpt
EC-Lab ASCII FILE
Nb header lines : 3
mode	ox/red	error	control changes	Ns changes	counter inc.	Ns	time/s	control/V/mA	Ewe/V	dq/mA.h	<I>/mA	P/W	(Q-Qo)/mA.h	x	Capacity/mA.h
1	0	0	1	1	0	1	75600,05	-0,200000003	2,33528948	0	0	0	0	0	0
1	0	0	1	0	0	1	76800,07	-0,200000003	2,28902125	-0,00055588481219526797	-0,20011457734599421	0,000458066526	-0,066703427905140096	0,0024887945788534266	0,066703427905140096
1	0	0	1	0	0	1	78000,10	-0,200000003	2,27361131	-0,00055588730067511405	-0,20011547290148106	0,000454984809	-0,13340987208561298	0,004977701698994944	0,13340987208561298
1	0	0	1	0	0	1	79200,12	-0,200000003	2,25745821	-0,0005558853406781952	-0,20011476806200723	0,000451750733	-0,20011607921275949	0,0074665999743581338	0,20011607921275949
1	0	0	1	0	0	1	80400,14	-0,200000003	2,23566723	-0,00055588678593188525	-0,20011528834305408	0,000447391183	-0,26682227017621581	0,0099554976466323085	0,26682227017621581
1	0	0	1	0	0	1	81600,17	-0,200000003	2,20136118	-0,00055588705013195667	-0,2001153827030679	0,00044052623	-0,33352892556709498	0,012444412647318059	0,33352892556709498
1	0	0	1	0	0	1	82800,19	-0,200000003	2,15391207	-0,00055588040059225427	-0,20011298921893382	0,000431025779	-0,40023543334953939	0,01493332214053465	0,40023543334953939
1	0	0	1	0	0	1	84000,22	-0,200000003	2,10206294	-0,00055589048113508365	-0,20011661859457696	0,000420657714	-0,4669422793862119	0,017422244254471277	0,4669422793862119
1	0	0	1	0	0	1	85200,24	-0,200000003	2,06848073	-0,00055588437213748691	-0,20011441876059334	0,000413932808	-0,53364917094089549	0,019911168066746099	0,53364917094089549
1	0	0	1	0	0	1	86400,26	-0,200000003	2,06935692	-0,00055589115938544275	-0,20011686200974323	0,000414113223	-0,60035584372837043	0,02240008371652223	0,60035584372837043
1	0	0	1	0	0	1	87600,29	-0,200000003	2,0751667	-0,00055588854071746272	-0,2001159200533784	0,000415273884	-0,66706254203831078	0,024889000318575859	0,66706254203831078
1	0	0	1	0	0	1	88800,31	-0,200000003	2,08053827	-0,00055589615880449606	-0,20011866237073664	0,000416354538	-0,73376949027133466	0,02737792624559576	0,73376949027133466
1	0	0	1	0	0	1	90000,33	-0,200000003	2,08568144	-0,00055589528898149728	-0,20011834863260966	0,000417383126	-0,80047682843750438	0,029866866721545606	0,80047682843750438
1	0	0	1	0	0	1	91200,36	-0,200000003	2,09048152	-0,00055589321071571776	-0,20011760092832403	0,000418342155	-0,86718406898950989	0,032355803555379738	0,86718406898950989
1	0	0	1	0	0	1	92400,38	-0,200000003	2,0936625	-0,0005558962040899529	-0,20011867881062778	0,000418980984	-0,93389178475950157	0,034844758120235866	0,93389178475950157
1	0	0	1	0	0	1	93600,41	-0,200000003	2,09556746	-0,00055590034130132858	-0,20012016743179981	0,0004193653	-1,0005997906325621	0,037333723509227552	1,0005997906325621
1	0	0	1	0	0	1	94800,43	-0,200000003	2,09631038	-0,00055590522434893587	-0,20012192529419373	0,000419517659	-1,0673084880880965	0,039822714702091181	1,0673084880880965
1	0	0	1	0	0	1	96000,45	-0,200000003	2,09611988	-0,00055590540837165376	-0,20012199228656058	0,000419479678	-1,1340172221105968	0,042311707259317466	1,1340172221105968
1	0	0	1	0	0	1	97200,48	-0,200000003	2,09482455	-0,000555898479660352	-0,20011949769256022	0,000419215241	-1,2007252640434237	0,044800673993747507	1,2007252640434237
1	0	0	1	0	0	1	98400,50	-0,200000003	2,09295774	-0,00055588531846470304	-0,20011475931779885	0,00041883174	-1,2674332456506434	0,047289638477348045	1,2674332456506434
1	0	0	1	0	0	1	99600,52	-0,200000003	2,08970046	-0,00055590321276171334	-0,20012120175214006	0,000418193376	-1,3341411639684147	0,049778600599534163	1,3341411639684147
1	0	0	1	0	0	1	100800,55	-0,200000003	2,08451939	-0,00055590445312029786	-0,20012164840286813	0,000417157455	-1,4008496707898541	0,052267584679583398	1,4008496707898541
1	0	0	1	0	0	1	102000,57	-0,200000003	2,0768621	-0,00055589652001774976	-0,20011879179690128	0,000415619143	-1,4675571499060262	0,054756530414567334	1,4675571499060262
1	0	0	1	0	0	1	103200,59	-0,200000003	2,06636643	-0,00055590484156128442	-0,2001217876249897	0,000413524947	-1,53426499980404	0,05724548998392032	1,53426499980404
1	0	0	1	0	0	1	104400,62	-0,200000003	2,05251837	-0,00055589790442503168	-0,2001192909191599	0,000410748529	-1,6009730297112909	0,059734456269659942	1,6009730297112909
1	0	0	1	0	0	1	105600,64	-0,200000003	2,03259397	-0,00055589800019065542	-0,20011932492817325	0,000406761334	-1,6676801638368394	0,062223389132579878	1,6676801638368394
1	0	0	1	0	0	1	106800,67	-0,200000003	2,00520253	-0,00055589766344593638	-0,20011920342524218	0,00040127954	-1,7343874937183334	0,064712329299417331	1,7343874937183334
1	0	0	1	0	0	1	108000,69	-0,200000003	1,96398211	-0,00055588804017504051	-0,20011573986166726	0,000393023744	-1,8010944289714253	0,067201254742138522	1,8010944289714253
1	0	0	1	0	0	1	109200,71	-0,200000003	1,91398048	-0,00055588055453697843	-0,20011304508521792	0,000383012462	-1,8678005736892752	0,069690150688926938	1,8678005736892752
1	0	0	1	0	0	1	110400,74	-0,200000003	1,85148335	-0,00055588604630033171	-0,20011502133548477	0,000370509631	-1,9345064258773267	0,072179035721035277	1,9345064258773267
1	0	0	1	0	0	1	111600,04	-0,200000003	1,76988065	-0,00051586229134019878	-0,20011472676261792	0,000354179181	-2,0011729002627926	0,074666451514385126	2,0011729002627926
1	1	0	0	0	0	2	112790,07	0,200000003	2,26124883	0,00055535871428168486	0,19992518602641005	0,000452080596	-1,9350871513340637	0,072200703368619814	0,066085748928728218
1	1	0	0	0	0	2	113990,09	0,200000003	2,24322939	0,00055532713653064429	0,1999138177952448	0,000448452542	-1,8684456582197683	0,069714219660085018	0,13272724204302413
1	1	0	0	0	0	2	115190,11	0,200000003	2,24317217	0,00055533911204586432	0,1999181294819953	0,000448450795	-1,8018050708204906	0,067227769744995277	0,1993678294423007
1	1	0	0	0	0	2	116390,14	0,200000003	2,24578166	0,00055534180945820282	0,19991910068950461	0,000448974664	-1,735164254209976	0,064741311277726106	0,26600864605281414
1	1	0	0	0	0	2	117590,16	0,200000003	2,24905801	0,00055534876015782349	0,19992160214716931	0,000449635292	-1,6685225029534106	0,062254817937556134	0,33265039730937952
1	1	0	0	0	0	2	118790,18	0,200000003	2,25180101	0,00055534414736760992	0,19991994166395258	0,000450179941	-1,6018808784298512	0,059768329325965018	0,39929202183293971
1	1	0	0	0	0	2	119990,21	0,200000003	2,25540113	0,00055535014324469696	0,19992210079335574	0,000450904539	-1,5352388069043414	0,057281824036130131	0,46593409335844781
1	1	0	0	0	0	2	121190,23	0,200000003	2,25913453	0,00055536000464939411	0,19992565039134218	0,00045165894	-1,468595816177928	0,054795284449673645	0,53257708408486093
1	1	0	0	0	0	2	122390,25	0,200000003	2,26237273	0,00055535023341659046	0,19992213250984266	0,00045229838	-1,4019537717487034	0,052308780170837587	0,59921912851408461
1	1	0	0	0	0	2	123590,28	0,200000003	2,26597285	0,00055535803939898816	0,1999249433527271	0,000453024491	-1,3353108418757445	0,049822242854905312	0,66586205838704346
1	1	0	0	0	0	2	124790,30	0,200000003	2,2697444	0,00055538823268314202	0,19993581272022675	0,000453803194	-1,2686668940954762	0,047335667559482726	0,73250600616731226
1	1	0	0	0	0	2	125990,33	0,200000003	2,27340174	0,0005553610551506281	0,19992602825709562	0,000454512192	-1,2020231802032846	0,044849100990738758	0,79914972005950426
1	1	0	0	0	0	2	127190,35	0,200000003	2,27742076	0,00055535316085235942	0,1999231866242273	0,000455309229	-1,1353806551451906	0,04236257877899337	0,86579224511759859
1	1	0	0	0	0	2	128390,37	0,200000003	2,28164959	0,00055537143103530016	0,19992976424420355	0,000456169655	-1,0687370566949515	0,039876016517543853	0,93243584356783821
1	1	0	0	0	0	2	129590,40	0,200000003	2,28644967	0,00055537172143161293	0,19992986818898461	0,000457129587	-1,0020927685720003	0,037389428523478182	0,99908013169078912
1	1	0	0	0	0	2	130790,42	0,200000003	2,29096413	0,00055534938214967648	0,19992182605748336	0,000458013732	-0,93544983150859878	0,034902890939260819	1,0657230687541899
1	1	0	0	0	0	2	131990,43	0,200000003	2,29645014	0,00055534881938000525	0,19992554369601299	0,000459119037	-0,8688081259686912	0,032416399304840826	1,1323647742940963
1	1	0	0	0	0	2	133190,43	0,200000003	2,30265975	0,00055534655869338253	0,19992472984895616	0,000460358628	-0,80216636251296589	0,029929905509503795	1,1990065377498211
1	1	0	0	0	0	2	134390,43	0,200000003	2,30902195	0,00055536359809173478	0,19993086403140317	0,000461644755	-0,73552416287146534	0,027443395439489037	1,2656487373913213
1	1	0	0	0	0	2	135590,43	0,200000003	2,31593633	0,00055535110088768928	0,19992636503865072	0,000463016739	-0,66888246170270797	0,024956903968162528	1,3322904385600795
1	1	0	0	0	0	2	136790,43	0,200000003	2,32153654	0,0005553480031771792	0,19992524986304157	0,000464133773	-0,60224028032169523	0,02247039457947112	1,3989326199410934
1	1	0	0	0	0	2	137990,43	0,200000003	2,32563186	0,00055534779429187379	0,19992517466434339	0,000464952347	-0,53559826059283245	0,019983891222238778	1,4655746396699558
1	1	0	0	0	0	2	139190,43	0,200000003	2,32774639	0,0005553473893983497	0,19992502890269754	0,00046537476	-0,46895574879763053	0,017497369505349722	1,532217151465159
1	1	0	0	0	0	2	140390,43	0,200000003	2,32911777	0,0005553438122678135	0,19992374113590598	0,00046564595	-0,40231380016327238	0,015010868800748931	1,5988591000995168
1	1	0	0	0	0	2	141590,43	0,200000003	2,33026075	0,0005553416350094809	0,19992295732302886	0,00046587261	-0,33567272611779245	0,01252440072823508	1,6655001741449965
1	1	0	0	0	0	2	142790,43	0,200000003	2,33136535	0,00055535214561472333	0,19992674114032416	0,000466102269	-0,26903133907029526	0,010037920977195131	1,7321415611924941
1	1	0	0	0	0	2	143990,43	0,200000003	2,33292747	0,00055536069217075904	0,19992981790001558	0,00046642177	-0,20238833234271398	0,0075513807937135603	1,7987845679200762
1	1	0	0	0	0	2	145190,43	0,200000003	2,33466077	0,00055535036630183462	0,19992610058778442	0,000466759637	-0,13574640219951827	0,0050648807790429005	1,8654264980632723
1	1	0	0	0	0	2	146390,43	0,200000003	2,33692741	0,00055535213906980218	0,19992673878415286	0,000467214268	-0,069104752565849165	0,0025783912305598259	1,9320681476969418
1	1	0	0	0	0	2	147590,43	0,200000003	2,33967042	0,00055535092857645619	0,19992630300661654	0,000467761653	-0,0024623924156353018	9,1875171749167104E-005	1,9987105078471558
1	1	0	0	0	0	2	147600,04	0,200000003	2,33965135	0,00053372646096431546	0,19992663921173802	0,000467758626	-0,0019286659546709862	7,1961119887729664E-005	1,9992442343081203