File: Experimentelles/Rohdaten/Batterietests/AlteZelle/150511_LLTO_LTO_Tests/ZView-Export/LLTO_LP30_LTO_02_CV_C01_loop2.txt
EC-Lab ASCII FILE
Nb header lines : 3
mode	ox/red	error	control changes	counter inc.	time/s	control/V	Ewe/V	<I>/mA	cycle number	(Q-Qo)/C	P/W
2	1	0	0	0	2172,09	0,271191865	0,271680713	-0,58279323577880858	3	0	0,000158333685
2	1	0	0	0	2179,22	0,34249723	0,342904896	-0,05561599798966199	3	-0,00136292225	1,9070998E-005
2	1	0	1	0	2186,45	0,41480276	0,415322065	0,003828059125225977	3	-0,00150330772	1,58987746E-006
2	1	0	0	0	2193,65	0,486708224	0,48709771	0,025680945914549085	3	-0,00138715375	1,25091301E-005
2	1	0	1	0	2200,80	0,558212996	0,558451653	0,038867295515356557	3	-0,00115036592	2,17055058E-005
2	1	0	1	0	2207,95	0,629719138	0,630057573	0,048472884770793203	3	-0,000834402454	3,05407084E-005
2	1	0	0	0	2215,10	0,701224625	0,701452255	0,058309819258283738	3	-0,000449742016	4,09015556E-005
2	1	0	1	0	2222,25	0,772730052	0,773277998	0,067204391894240883	3	1,911357E-006	5,1967676E-005
2	1	0	1	0	2229,40	0,84423542	0,844692707	0,07305858934220544	3	0,000508520578	6,17120604E-005
2	1	0	1	0	2236,51	0,91534096	0,916157663	0,076494368278265946	3	0,00104530226	7,00809032E-005
2	1	0	0	0	2243,66	0,986846387	0,987341762	0,077571660590668467	3	0,00159927213	7,65897421E-005
2	1	0	1	0	2250,81	1,05835176	1,05884671	0,077838317607529574	3	0,00215785392	8,24188464E-005
2	1	0	1	0	2257,96	1,1298573	1,13019133	0,078162685075464141	3	0,00271881651	8,83387911E-005
2	1	0	0	0	2265,11	1,20136261	1,20218742	0,077606960820655014	3	0,00327947363	9,32981129E-005
2	1	0	1	0	2272,26	1,27286816	1,2734319	0,073216864936208819	3	0,00382748456	9,32366893E-005
2	1	0	0	0	2279,41	1,3443737	1,34489667	0,06926737944983552	3	0,00433741836	9,31574687E-005
2	1	0	0	0	2286,56	1,41587901	1,41647184	0,070947610811951334	3	0,0048399074	0,000100495294
2	1	0	1	0	2293,71	1,48738456	1,4877764	0,073565997668386458	3	0,00535937771	0,000109449757
2	1	0	0	0	2300,86	1,55888999	1,55915105	0,07688151911133911	3	0,00589927938	0,000119869903
2	1	0	1	0	2308,01	1,63039541	1,63072598	0,082956863935881971	3	0,00647202972	0,000135279915
2	1	0	1	0	2315,16	1,70190084	1,70242143	0,090124423460413722	3	0,00709400047	0,000153429748
2	1	0	0	0	2322,32	1,77340627	1,77378607	0,098520685569382976	3	0,00777199026	0,000174754619
2	1	0	1	0	2329,51	1,84531188	1,84569204	0,10674004702984053	3	0,00851366017	0,000197009256
2	1	0	1	0	2336,66	1,91681802	1,91737795	0,11514893388474467	3	0,00931059569	0,00022078403
2	1	0	0	0	2343,81	1,98832273	1,98880219	0,12202912293529744	3	0,0101628369	0,000242691793
2	1	0	1	0	2350,96	2,05982828	2,06038737	0,12755978064766749	3	0,0110609988	0,000262822548
2	1	0	0	0	2358,11	2,13133359	2,13187242	0,13237365156722581	3	0,0119949142	0,00028220375
2	1	0	1	0	2365,26	2,20283985	2,20348907	0,13592864671008642	3	0,0129578104	0,000299517298
2	1	0	1	0	2372,41	2,27434444	2,27495241	0,14008453856998382	3	0,0139487861	0,000318685663
2	1	0	0	0	2379,56	2,34584999	2,3466177	0,14492574578616723	3	0,014970853	0,000340085331
2	1	0	1	0	2386,71	2,41735554	2,41795254	0,14956128612781584	3	0,0160277188	0,00036163209
2	1	0	1	0	2393,86	2,48886085	2,48944736	0,15464262924312333	3	0,0171197746	0,000384974672
2	1	0	0	0	2401,01	2,56036639	2,561203	0,15976070073277994	3	0,0182465836	0,0004091796
2	1	0	1	0	2408,16	2,63187194	2,63231683	0,1672111477625249	3	0,0194171965	0,000440152711
2	1	0	0	0	2415,31	2,70337725	2,70393205	0,17508628599656051	3	0,0206449255	0,000473421416
2	1	0	0	0	2422,46	2,77488279	2,77534676	0,18322004533062365	3	0,0219311696	0,000508499157
2	1	0	1	0	2429,61	2,8463881	2,84704208	0,19229005055967718	3	0,0232751817	0,000547457894
2	1	0	0	0	2436,76	2,91789365	2,91834688	0,20432532159611539	3	0,0246955771	0,000596292142
2	1	0	1	0	2443,91	2,98939919	2,9900322	0,22162986275119101	3	0,0262214318	0,000662680424
2	1	0	1	0	2451,07	3,0609045	3,06162739	0,24187841336242854	3	0,0278808419	0,000740541553
2	1	0	0	0	2458,22	3,13240981	3,13307214	0,26664080307819037	3	0,0296992175	0,000835404848
2	1	0	1	0	2465,37	3,20391536	3,2046473	0,29955911209496346	3	0,0317218564	0,000959981291
2	1	0	0	0	2472,52	3,27542162	3,27609253	0,3461557323581385	3	0,0340241045	0,0011340382
2	1	0	0	0	2479,67	3,34692621	3,3475368	0,41633176989853427	3	0,0367397964	0,00139368593
2	1	0	1	0	2486,82	3,41843176	3,41885161	0,50701154613246138	3	0,0400353968	0,00173339725
2	1	0	0	0	2493,97	3,48993707	3,49045682	0,60824174325292365	3	0,044023525	0,00212304154
2	1	0	1	0	2501,12	3,56144309	3,56215262	0,71144433498342426	3	0,048747737	0,00253427331
2	1	0	1	0	2508,27	3,63294816	3,63354683	0,80480281760295117	3	0,0541832	0,00292428862
2	1	0	0	0	2515,42	3,70445395	3,70518208	0,88091230361412134	3	0,0602226295	0,00326394057
2	1	0	1	0	2522,57	3,77595901	3,77689767	0,94605029312272614	3	0,0667654201	0,00357313524
2	1	0	1	0	2529,76	3,84786463	3,84854293	1,0099086485182251	3	0,0737908334	0,00388667686
2	1	0	0	0	2536,91	3,91936994	3,9201684	1,1150678812215773	3	0,0813567862	0,00437125377
2	1	0	1	0	2544,06	3,99087548	3,99167299	1,2190165777380245	3	0,0897400454	0,00486591551
2	1	0	0	0	2551,21	4,06238079	4,0630579	1,2976652346551418	3	0,0987352356	0,00527248904
2	1	0	0	0	2558,36	4,13388586	4,13462162	1,4224977060790707	3	0,108419396	0,00588148972
2	0	0	1	1	2565,45	4,19519091	4,19618368	1,5400745781759414	3	0,119250342	0,0064624357
2	0	0	0	1	2572,61	4,12368584	4,12455845	0,7441691962691657	3	0,127050295	0,00306936936
2	0	0	1	1	2579,80	4,05178022	4,05260229	0,34589453740045338	3	0,130802616	0,00140177296
2	0	0	1	1	2586,95	3,98027563	3,98097825	0,14609117421250461	3	0,132480517	0,000581585802
2	0	0	0	1	2594,14	3,9083693	3,90898085	0,033344035357004032	3	0,133092403	0,000130341199
2	0	0	1	1	2601,37	3,83606362	3,83686423	-0,043267316922235174	3	0,133036494	0,000166010825
2	0	0	0	1	2608,52	3,76455808	3,76521897	-0,091794415338275482	3	0,132536262	0,00034562606
2	0	0	0	1	2615,71	3,69265294	3,69327307	-0,12150361842189027	3	0,131759971	0,000448746054
2	0	0	1	1	2622,86	3,62114716	3,62172794	-0,14293337962590158	3	0,130807519	0,000517665816
2	0	0	0	1	2630,01	3,54964209	3,55046344	-0,15925054562588592	3	0,129721791	0,000565413211
2	0	0	1	1	2637,16	3,47813606	3,47888827	-0,1715145418808488	3	0,128534049	0,000596679922
2	0	0	1	1	2644,31	3,40663075	3,40724277	-0,18202124338131398	3	0,127265424	0,000620190578
2	0	0	0	1	2651,46	3,33512568	3,33562779	-0,1913167387247089	3	0,12592648	0,000638161437
2	0	0	1	1	2658,61	3,2636199	3,26427317	-0,20025403099134563	3	0,124522425	0,000653683848
2	0	0	0	1	2665,76	3,19211435	3,19281816	-0,20826507445114384	3	0,123058587	0,000664952502
2	0	0	0	1	2672,91	3,12060905	3,12103271	-0,21606599361014877	3	0,121536762	0,000674349023
2	0	0	1	1	2680,06	3,0491035	3,04984856	-0,22416639475462374	3	0,119959369	0,000683673541
2	0	0	0	1	2687,21	2,97759819	2,97815347	-0,23039304434011498	3	0,118330427	0,000686145853
2	0	0	1	1	2694,36	2,90609264	2,90681863	-0,2361439086186392	3	0,116656497	0,00068642752
2	0	0	1	1	2701,51	2,83458734	2,83503294	-0,24029238351310288	3	0,114948496	0,000681236794
2	0	0	0	1	2708,67	2,76308179	2,76384878	-0,24072378214138368	3	0,113223143	0,000665324158
2	0	0	1	1	2715,82	2,69157624	2,69205308	-0,23759830960383078	3	0,111508518	0,00063962728
2	0	0	0	1	2722,97	2,62007093	2,62068844	-0,23272094495284067	3	0,109822713	0,000609889103
2	0	0	0	1	2730,12	2,54856539	2,54928374	-0,22739375165353203	3	0,108173981	0,000579691201
2	0	0	1	1	2737,27	2,47705984	2,47773862	-0,22104857147981782	3	0,106567301	0,000547700562
2	0	0	0	1	2744,42	2,40555453	2,40614343	-0,21489944146014749	3	0,105005652	0,00051707885
2	0	0	0	1	2751,57	2,33405018	2,33444929	-0,20768455694267642	3	0,10349267	0,00048482907
2	0	0	1	1	2758,72	2,26254368	2,26305318	-0,20038718691406211	3	0,102029428	0,000453486864
2	0	0	0	1	2765,87	2,19103813	2,19172883	-0,19465280941221853	3	0,10061349	0,000426626182
2	0	0	1	1	2773,02	2,11953259	2,1201036	-0,18990045685010637	3	0,0992369577	0,000402608654
2	0	0	1	1	2780,17	2,04802752	2,04865885	-0,18667731996780867	3	0,0978881344	0,000382438157
2	0	0	0	1	2787,32	1,97652197	1,97715378	-0,18471503094769971	3	0,0965569615	0,000365210028
2	0	0	1	1	2794,47	1,9050163	1,90574896	-0,18223398985962074	3	0,0952406824	0,000347292225
2	0	0	0	1	2801,62	1,83351088	1,83408368	-0,18057096248958304	3	0,0939391032	0,000331182266
2	0	0	0	1	2808,77	1,76200545	1,76263893	-0,18009304728669462	3	0,0926464424	0,000317439029
2	0	0	1	1	2815,92	1,69050002	1,69088328	-0,18100996614278598	3	0,0913530141	0,000306066737
2	0	0	0	1	2823,07	1,61899447	1,61955869	-0,18310136790387354	3	0,0900487378	0,000296543411
2	0	0	1	1	2830,22	1,54748917	1,54803371	-0,1877542145084592	3	0,088720344	0,000290649856
2	0	0	1	1	2837,38	1,47598374	1,47636843	-0,19430069252848646	3	0,0873523057	0,000286859402
2	0	0	0	1	2844,53	1,40447819	1,4051441	-0,20199399798487683	3	0,0859320611	0,000283830683
2	0	0	1	1	2851,68	1,33297276	1,33339858	-0,20997286130053405	3	0,0844552144	0,00027997751
2	0	0	0	1	2858,83	1,26146734	1,26195371	-0,21624157282834221	3	0,0829266086	0,000272886857
2	0	0	0	1	2865,98	1,18996191	1,19036853	-0,22113551680619549	3	0,081359081	0,000263232767
2	0	0	1	1	2873,13	1,11845636	1,1189338	-0,22682107371898973	3	0,079757072	0,000253797771
2	0	0	0	1	2880,28	1,04695094	1,04745877	-0,24024569080211222	3	0,0780881792	0,000251647463
2	0	0	1	1	2887,43	0,975444794	0,975542426	-0,26209605321997386	3	0,0762922764	0,000255685824
2	0	0	1	1	2894,58	0,903940082	0,904448926	-0,28811999317258509	3	0,0743234158	0,000260589819
2	0	0	0	1	2901,73	0,832434595	0,832773626	-0,3149578800269719	3	0,0721613839	0,00026228861
2	0	0	1	1	2908,88	0,760929167	0,76133883	-0,33741861768066874	3	0,0698225051	0,000256889907
2	0	0	1	1	2916,03	0,68942368	0,68983382	-0,35437154086927693	3	0,067343004	0,000244457478
2	0	0	0	1	2923,18	0,617918253	0,618058205	-0,36901109743242566	3	0,064753294	0,000228070334
2	0	0	1	1	2930,33	0,546412766	0,546583295	-0,38613042041348832	3	0,0620530769	0,000211052436
2	0	0	0	1	2937,48	0,474907309	0,475198627	-0,40909413977836627	3	0,0592106506	0,000194400971
2	0	0	0	1	2944,63	0,403401881	0,403713644	-0,44129468764488864	3	0,0561739467	0,000178156683
2	0	0	1	1	2951,78	0,331896424	0,332369149	-0,49219264167671462	3	0,0528484248	0,000163589648
2	0	0	0	1	2957,91	0,270591825	0,270397574	-0,5682066082954407	3	0,0496269912	0,000153641682