File: Experimentelles/Rohdaten/Batterietests/AlteZelle/150511_LLTO_LTO_Tests/ZView-Export/LLTO_LP30_LTO_04_OCV_C01.txt
EC-Lab ASCII FILE
Nb header lines : 48

Open Circuit Voltage

Run on channel : 1 (SN 6985)
Grouped channel(s) : 1
User :
CE vs. WE compliance from -10 V to 10 V
Electrode connection : standard
Ewe ctrl range : min = 0,00 V, max = 5,00 V
Acquisition started on : 05.11.2015 15:04:53
Saved on :
	File : LLTO_LP30_LTO_04_OCV_C01.mpr
	Directory : C:\Hupfer\150511_LLTO_LTO_Tests\
	Host : 192.168.0.2
Device : VMP3 (SN 0324)
Address : 192.168.0.1
EC-Lab for windows v10.33 (software)
Internet server v10.33 (firmware)
Command interpretor v10.32 (firmware)
Electrode material : LATP vs Li
Initial state : charged
Electrolyte : DME:Diox 1:2, 1M LiTFSi
Comments : LATP als Elektrode, normaler Seperator und Elektrolyt, Goldschicht teilweise vorhanden, elektrolytschonend, Probe2
Mass of active material : 0,001 mg
 at x = 0,000
Molecular weight of active material (at x = 0) : 0,001 g/mol
Atomic weight of intercalated ion : 0,001 g/mol
Acquisition started at : xo = 0,000
Number of e- transfered per intercalated ion : 1
for DX = 1, DQ = 26,801 mA.h
Battery capacity : 0,000 A.h
Reference electrode : Li+/Li (-3,020 V)
Electrode surface area : 0,001 cm²
Characteristic mass : 0,001 g
Create one data file per loop
tR (h:m:s)          1:00:0,0000
dER/dt (mV/h)       0,0
dER (mV)            0,00
dtR (s)             5,0000
E range min (V)     0,000
E range max (V)     5,000

Number of loops : 1
Loop 0 from point number 0 to 720

mode	error	time/s	Ewe/V
3	0	9243,5034	0,320913911
3	0	9258,5034	0,507108331
3	0	9273,5034	0,598993063
3	0	9288,5034	0,665882528
3	0	9303,5034	0,716102123
3	0	9318,5034	0,756201386
3	0	9333,5034	0,789961219
3	0	9348,5034	0,818947256
3	0	9363,5034	0,84478271
3	0	9378,5034	0,86756289
3	0	9393,5034	0,888166308
3	0	9408,5034	0,906898439
3	0	9423,5034	0,924122036
3	0	9438,5034	0,940066278
3	0	9453,5034	0,95463568
3	0	9468,5034	0,96788758
3	0	9483,5034	0,980299234
3	0	9498,5034	0,991527021
3	0	9513,5034	1,00195289
3	0	9528,5034	1,01142395
3	0	9543,5034	1,02026486
3	0	9558,5034	1,02859032
3	0	9573,5034	1,03617096
3	0	9588,5034	1,04352248
3	0	9603,5034	1,05011022
3	0	9618,5034	1,05633521
3	0	9633,5034	1,06217825
3	0	9648,5034	1,06777298
3	0	9663,5034	1,07300508
3	0	9678,5034	1,07798886
3	0	9693,5034	1,08262885
3	0	9708,5034	1,08702075
3	0	9723,5034	1,09129798
3	0	9738,5034	1,09542251
3	0	9753,5034	1,09926057
3	0	9768,5034	1,1029458
3	0	9783,5034	1,10661209
3	0	9798,5034	1,11001098
3	0	9813,5034	1,11335254
3	0	9828,5034	1,11657965
3	0	9843,5034	1,1197685
3	0	9858,5034	1,12276638
3	0	9873,5034	1,12561154
3	0	9888,5034	1,12849486
3	0	9903,5034	1,13112998
3	0	9918,5034	1,13387966
3	0	9933,5034	1,1364001
3	0	9948,5034	1,13874876
3	0	9963,5034	1,14104021
3	0	9978,5034	1,14336979
3	0	9993,5034	1,145432
3	0	10008,5034	1,1474179
3	0	10023,5034	1,14917457
3	0	10038,5034	1,15102684
3	0	10053,5034	1,15264988
3	0	10068,5034	1,15404379
3	0	10083,5034	1,15522766
3	0	10098,5034	1,15622067
3	0	10113,5034	1,15711808
3	0	10128,5034	1,157691
3	0	10143,5034	1,15772915
3	0	10158,5034	1,1577673
3	0	10173,5034	1,15736639
3	0	10188,5034	1,15671706
3	0	10203,5034	1,15570509
3	0	10218,5034	1,15440667
3	0	10233,5034	1,15276444
3	0	10248,5034	1,15087402
3	0	10263,5034	1,14862084
3	0	10278,5034	1,14623404
3	0	10293,5034	1,14314067
3	0	10308,5034	1,13968444
3	0	10323,5034	1,13525438
3	0	10338,5034	1,13032794
3	0	10353,5034	1,12505782
3	0	10368,5034	1,11957753
3	0	10383,5034	1,11367714
3	0	10398,5034	1,10764325
3	0	10413,5034	1,1014564
3	0	10428,5034	1,09498334
3	0	10443,5034	1,08841467
3	0	10458,5034	1,08180785
3	0	10473,5034	1,07531548
3	0	10488,5034	1,06851768
3	0	10503,5034	1,06198728
3	0	10518,5034	1,0555141
3	0	10533,5034	1,0489645
3	0	10548,5034	1,04281604
3	0	10563,5034	1,03643835
3	0	10578,5034	1,03046155
3	0	10593,5034	1,02454221
3	0	10608,5034	1,01875639
3	0	10623,5034	1,01298976
3	0	10638,5034	1,00756681
3	0	10653,5034	1,00212479
3	0	10668,5034	0,996835411
3	0	10683,5034	0,991813481
3	0	10698,5034	0,986772418
3	0	10713,5034	0,981903195
3	0	10728,5034	0,977072179
3	0	10743,5034	0,97239393
3	0	10758,5034	0,967983007
3	0	10773,5034	0,963400245
3	0	10788,5034	0,959103882
3	0	10803,5034	0,9548648
3	0	10818,5034	0,950759411
3	0	10833,5034	0,946692228
3	0	10848,5034	0,942510426
3	0	10863,5034	0,938634157
3	0	10878,5034	0,934776962
3	0	10893,5034	0,931034386
3	0	10908,5034	0,927425444
3	0	10923,5034	0,923644662
3	0	10938,5034	0,920112073
3	0	10953,5034	0,916579545
3	0	10968,5034	0,912913322
3	0	10983,5034	0,909438014
3	0	10998,5034	0,906096458
3	0	11013,5034	0,902659357
3	0	11028,5034	0,899317741
3	0	11043,5034	0,895804286
3	0	11058,5034	0,892596364
3	0	11073,5034	0,889407456
3	0	11088,5034	0,886084974
3	0	11103,5034	0,883010685
3	0	11118,5034	0,87966907
3	0	11133,5034	0,876575708
3	0	11148,5034	0,873596907
3	0	11163,5034	0,870484412
3	0	11178,5034	0,86733377
3	0	11193,5034	0,864354968
3	0	11208,5034	0,861376166
3	0	11223,5034	0,858301878
3	0	11238,5034	0,855437636
3	0	11253,5034	0,852420628
3	0	11268,5034	0,849499106
3	0	11283,5034	0,846673071
3	0	11298,5034	0,843713403
3	0	11313,5034	0,840639114
3	0	11328,5034	0,837965786
3	0	11343,5034	0,835158885
3	0	11358,5034	0,83227551
3	0	11373,5034	0,829583168
3	0	11388,5034	0,82662344
3	0	11403,5034	0,823854685
3	0	11418,5034	0,821181357
3	0	11433,5034	0,818298042
3	0	11448,5034	0,81566298
3	0	11463,5034	0,812989652
3	0	11478,5034	0,810220897
3	0	11493,5034	0,807528496
3	0	11508,5034	0,804950714
3	0	11523,5034	0,802201033
3	0	11538,5034	0,799623251
3	0	11553,5034	0,796969056
3	0	11568,5034	0,794410348
3	0	11583,5034	0,791775227
3	0	11598,5034	0,789216518
3	0	11613,5034	0,786619604
3	0	11628,5034	0,784251809
3	0	11643,5034	0,781578541
3	0	11658,5034	0,779210806
3	0	11673,5034	0,776461124
3	0	11688,5034	0,77403605
3	0	11703,5034	0,771763742
3	0	11718,5034	0,769415081
3	0	11733,5034	0,766932726
3	0	11748,5034	0,764660478
3	0	11763,5034	0,76215905
3	0	11778,5034	0,759695768
3	0	11793,5034	0,7574808
3	0	11808,5034	0,754998446
3	0	11823,5034	0,752745211
3	0	11838,5034	0,75033927
3	0	11853,5034	0,748200655
3	0	11868,5034	0,74600476
3	0	11883,5034	0,743732452
3	0	11898,5034	0,741555631
3	0	11913,5034	0,739283323
3	0	11928,5034	0,737125576
3	0	11943,5034	0,735044241
3	0	11958,5034	0,73286742
3	0	11973,5034	0,730767012
3	0	11988,5034	0,72864747
3	0	12003,5034	0,726508856
3	0	12018,5034	0,724427462
3	0	12033,5034	0,722384334
3	0	12048,5034	0,720302999
3	0	12063,5034	0,718298018
3	0	12078,5034	0,716445804
3	0	12093,5034	0,714326262
3	0	12108,5034	0,712493181
3	0	12123,5034	0,71043092
3	0	12138,5034	0,708521426
3	0	12153,5034	0,706726491
3	0	12168,5034	0,70483613
3	0	12183,5034	0,702888429
3	0	12198,5034	0,701093495
3	0	12213,5034	0,699184
3	0	12228,5034	0,697312713
3	0	12243,5034	0,695536911
3	0	12258,5034	0,693799257
3	0	12273,5034	0,692023456
3	0	12288,5034	0,690266728
3	0	12303,5034	0,688548148
3	0	12318,5034	0,686715066
3	0	12333,5034	0,685072899
3	0	12348,5034	0,683277965
3	0	12363,5034	0,681750357
3	0	12378,5034	0,679936349
3	0	12393,5034	0,678294182
3	0	12408,5034	0,676652014
3	0	12423,5034	0,674952567
3	0	12438,5034	0,673463166
3	0	12453,5034	0,671897411
3	0	12468,5034	0,670121551
3	0	12483,5034	0,66863215
3	0	12498,5034	0,666951835
3	0	12513,5034	0,665405154
3	0	12528,5034	0,663801134
3	0	12543,5034	0,662292659
3	0	12558,5034	0,660841465
3	0	12573,5034	0,659256577
3	0	12588,5034	0,657805383
3	0	12603,5034	0,656354129
3	0	12618,5034	0,655055702
3	0	12633,5034	0,653585374
3	0	12648,5034	0,65219146
3	0	12663,5034	0,650702059
3	0	12678,5034	0,649308145
3	0	12693,5034	0,647837818
3	0	12708,5034	0,646615744
3	0	12723,5034	0,645145416
3	0	12738,5034	0,643885195
3	0	12753,5034	0,642491221
3	0	12768,5034	0,641211867
3	0	12783,5034	0,639932513
3	0	12798,5034	0,638576806
3	0	12813,5034	0,637392879
3	0	12828,5034	0,636132658
3	0	12843,5034	0,634815097