File: Experimentelles/Rohdaten/Batterietests/AlteZelle/150511_LLTO_LTO_Tests/ZView-Export/LLTO_LP30_LTO_05_GCPL_C01_loop4.txt
EC-Lab ASCII FILE
Nb header lines : 3
mode	ox/red	error	control changes	Ns changes	counter inc.	Ns	time/s	control/V/mA	Ewe/V	dq/mA.h	<I>/mA	P/W	(Q-Qo)/mA.h	x	Capacity/mA.h
1	0	0	1	1	0	1	164047,97	-0,0100000007	2,68845963	0	0	0	0	0	0
1	0	0	1	0	0	1	164737,97	-0,0100000007	1,93123198	-2,7757609289605171E-005	-0,0099927377807721984	1,92982952E-005	-0,0019152050274605251	7,145887459509824E-005	0,0019152050274605251
1	0	0	1	0	0	1	165427,97	-0,0100000007	1,53302681	-2,7758021835030781E-005	-0,0099928862971021811	1,53193632E-005	-0,0038305072059850112	0,00014292137402701386	0,0038305072059850112
1	0	0	1	0	0	1	166117,97	-0,0100000007	1,23048711	-2,7758541611230208E-005	-0,0099930734165046989	1,22963484E-005	-0,0057458003892446266	0,00021438353783350291	0,0057458003892446266
1	0	0	1	0	0	1	166807,97	-0,0100000007	0,980133772	-2,7759623354611299E-005	-0,00999346284406096	9,79493052E-006	-0,007661112367447616	0,00028584640290459926	0,007661112367447616
1	1	0	0	0	0	2	167482,61	0,0100000007	1,45950508	2,779391141416919E-005	0,010005806543570478	1,46035254E-005	-0,007145124794521673	0,00026659421280606208	0,0011951049703865101
1	1	0	0	0	0	2	168172,61	0,0100000007	1,92521071	2,7793596092197632E-005	0,01000569302767848	1,92630669E-005	-0,0052273304422173267	0,00019503872701965664	0,003112899322690855
1	1	0	0	0	0	2	168862,61	0,0100000007	2,20079494	2,7795142202068947E-005	0,010006249627145066	2,20217044E-005	-0,003309542439373049	0,00012348347814014325	0,0050306873255351354
1	1	0	0	0	0	2	169552,61	0,0100000007	2,3451333	2,7797073406374291E-005	0,010006944860586211	2,3467619E-005	-0,0013916326040910093	5,1923683528571514E-005	0,006948597160817175
1	1	0	0	0	0	2	170242,61	0,0100000007	2,42370892	2,779571753776529E-005	0,010006456747963341	2,42527385E-005	0,00052630636500785024	-1,9637198104876605E-005	0,0088665361299160397
1	1	0	0	0	0	2	170932,61	0,0100000007	2,46848631	2,7795029393500749E-005	0,010006209016066869	2,47001899E-005	0,0024441840401165645	-9,119579277714176E-005	0,010784413805024758
1	1	0	0	0	0	2	171622,61	0,0100000007	2,49344349	2,7795363667731485E-005	0,010006329354771104	2,49502173E-005	0,0043620307262186522	-0,00016275323120790451	0,012702260491126848
1	1	0	0	0	0	2	172312,61	0,0100000007	2,50828028	2,7794042344774224E-005	0,010005853678580915	2,50974863E-005	0,0062798602108428723	-0,00023431002782840042	0,014620089975751069
1	1	0	0	0	0	2	173002,61	0,0100000007	2,51822853	2,7794309465628531E-005	0,010005949842073419	2,51972688E-005	0,0081976741152010483	-0,00030586624312822234	0,016537903880109248
1	1	0	0	0	0	2	173692,61	0,0100000007	2,52552295	2,7793719137604867E-005	0,010005737324018152	2,52697191E-005	0,01011546735544792	-0,00037742168742226816	0,018455697120356125
1	1	0	0	0	0	2	174382,61	0,0100000007	2,53172874	2,7793933070937379E-005	0,010005814340005806	2,53320086E-005	0,012033262279104589	-0,00044897719452659699	0,020373492044012803
1	1	0	0	0	0	2	175072,61	0,0100000007	2,53650236	2,7794400622964736E-005	0,01000598265870932	2,53801991E-005	0,013951060925819904	-0,00052053284054324966	0,022291290690728112
1	1	0	0	0	0	2	175762,61	0,0100000007	2,54125714	2,7794396264219866E-005	0,010005981089561411	2,54277711E-005	0,015868891044517302	-0,00059208966082186829	0,024209120809425517
1	1	0	0	0	0	2	176452,61	0,0100000007	2,54498053	2,7793982822861936E-005	0,010005832250695845	2,54646475E-005	0,017786709971776694	-0,00066364606353288794	0,026126939736684909
1	1	0	0	0	0	2	177142,61	0,0100000007	2,54824591	2,7793427149609974E-005	0,010005632208356437	2,54968108E-005	0,01970448525419199	-0,00073520083779609331	0,028044715019100205
1	1	0	0	0	0	2	177832,61	0,0100000007	2,55097628	2,7792937759827408E-005	0,01000545602806228	2,5523681E-005	0,021622233088583504	-0,00080675458793662694	0,029962462853491718
1	1	0	0	0	0	2	178522,61	0,0100000007	2,55380249	2,7793617148469722E-005	0,010005700607935245	2,55525829E-005	0,023539943846229283	-0,00087830695469392704	0,031880173611137498
1	1	0	0	0	0	2	179212,61	0,0100000007	2,55605555	2,7793803151024298E-005	0,010005767568844414	2,55752984E-005	0,025457707217408688	-0,0009498612845329065	0,033797936982316877
1	1	0	0	0	0	2	179902,61	0,0100000007	2,55720139	2,7793985731847997E-005	0,010005833297930664	2,55869309E-005	0,02737547640387391	-0,0010214158313480182	0,035715706168782086
1	1	0	0	0	0	2	180592,62	0,0100000007	2,5588243	2,7794003155444643E-005	0,010005839570424477	2,56031853E-005	0,029293245083468525	-0,0010929703592511064	0,037633474848376723
1	1	0	0	0	0	2	181282,62	0,0100000007	2,56021833	2,7793733065533968E-005	0,010005742338071845	2,56168842E-005	0,031211012545069862	-0,0011645248417092278	0,039551242309978067
1	1	0	0	0	0	2	181972,62	0,0100000007	2,56126857	2,7792778110545542E-005	0,010005398554329802	2,56265121E-005	0,033128728517766893	-0,0012360774030471019	0,041468958282675098
1	1	0	0	0	0	2	182662,62	0,0100000007	2,56228065	2,7791599389010419E-005	0,010004974214643549	2,56355524E-005	0,035046381626615648	-0,0013076276188502754	0,043386611391523853
1	1	0	0	0	0	2	183352,62	0,0100000007	2,56375098	2,7791174463513824E-005	0,01000482124148871	2,56498697E-005	0,036963989554139859	-0,0013791761488774832	0,045304219319048064
1	1	0	0	0	0	2	184042,62	0,0100000007	2,5654695	2,7791226355410698E-005	0,010004839922568662	2,56671119E-005	0,038881569923071635	-0,0014507236506565542	0,04722179968797984
1	1	0	0	0	0	2	184732,62	0,0100000007	2,56726432	2,7792053784140282E-005	0,010005137796864706	2,5685833E-005	0,040799185617060934	-0,0015222724704610166	0,049139415381969133
1	1	0	0	0	0	2	185422,62	0,0100000007	2,56959391	2,7792053614380874E-005	0,010005137735751326	2,57091415E-005	0,042716792865622221	-0,0015938209751552051	0,051057022630530426
1	1	0	0	0	0	2	186112,62	0,0100000007	2,57131243	2,7791360908498365E-005	0,010004888361672642	2,57256943E-005	0,044634408644864486	-0,0016653697981405702	0,052974638409772691
1	1	0	0	0	0	2	186802,62	0,0100000007	2,5734129	2,7791532236461834E-005	0,01000495003972984	2,57468673E-005	0,04655203107167063	-0,0017369188691554813	0,054892260836578835
1	1	0	0	0	0	2	187492,62	0,0100000007	2,57408118	2,7792291750044874E-005	0,010005223464576954	2,57542579E-005	0,048469665583493024	-0,0018084683910785978	0,056809895348401229
1	1	0	0	0	0	2	188182,62	0,0100000007	2,57589531	2,7792960810992451E-005	0,010005464326480397	2,5773028E-005	0,050387336285794413	-0,0018800192633171434	0,058727566050702618
1	1	0	0	0	0	2	188872,62	0,0100000007	2,57734656	2,7792720547256371E-005	0,010005377831548939	2,57873253E-005	0,052305023251112685	-0,0019515707423507152	0,06064525301602089
1	1	0	0	0	0	2	189562,62	0,0100000007	2,57875943	2,7793029719653229E-005	0,010005489133594395	2,58017499E-005	0,054222736108451712	-0,0020231231874503936	0,062562965873359923
1	1	0	0	0	0	2	190252,62	0,0100000007	2,58021069	2,7793081712184678E-005	0,010005507850902789	2,58163182E-005	0,056140452799507501	-0,0020946757755911987	0,064480682564415744
1	1	0	0	0	0	2	190942,62	0,0100000007	2,58021069	2,7793982871394189E-005	0,010005832268167454	2,58171549E-005	0,058058191695340122	-0,0021662291922220819	0,066398421460248371
1	1	0	0	0	0	2	191632,62	0,0100000007	2,58212018	2,7794137426703754E-005	0,01000588790807019	2,58364053E-005	0,059975961519966925	-0,0022377837628478605	0,068316191284875162
1	1	0	0	0	0	2	192322,62	0,0100000007	2,58372426	2,7794314704214534E-005	0,010005951727964086	2,58526197E-005	0,06189374894875415	-0,0023093389903085334	0,070233978713662349
1	1	0	0	0	0	2	193012,62	0,0100000007	2,58500361	2,7795138636759171E-005	0,010006248343633747	2,58661876E-005	0,063811593826646451	-0,0023808963612725578	0,072151823591554611
1	1	0	0	0	0	2	193702,62	0,0100000007	2,58630204	2,779442587872553E-005	0,010005991750781782	2,58785167E-005	0,065729415087732762	-0,0024524528510617978	0,074069644852640934
1	1	0	0	0	0	2	194392,62	0,0100000007	2,58731389	2,7793767351398454E-005	0,010005754680981128	2,58880282E-005	0,06764721793176416	-0,0025240086536859568	0,075987447696672333
1	1	0	0	0	0	2	195082,62	0,0100000007	2,5868175	2,7794289287955808E-005	0,010005942578112378	2,5883548E-005	0,069565012541384742	-0,002595564149073177	0,077905242306292902
1	1	0	0	0	0	2	195772,62	0,0100000007	2,58842158	2,7794063441662326E-005	0,010005861273459445	2,58993878E-005	0,071482807552646886	-0,0026671196594461837	0,079823037317555046
1	1	0	0	0	0	2	196462,62	0,0100000007	2,58989191	2,7794086523250573E-005	0,010005869582829914	2,59141216E-005	0,073400613072585446	-0,0027386755619120368	0,081740842837493606
1	1	0	0	0	0	2	197152,62	0,0100000007	2,59054112	2,7794059172790083E-005	0,010005859736665677	2,59205917E-005	0,075318418310683776	-0,0028102314538620525	0,083658648075591949
1	1	0	0	0	0	2	197842,62	0,0100000007	2,59172487	2,7794069524647462E-005	0,01000586346333375	2,59324461E-005	0,077236212225983706	-0,0028817869233432352	0,085576441990891866
1	1	0	0	0	0	2	198532,62	0,0100000007	2,59281325	2,7793809412564669E-005	0,010005769822998595	2,59430926E-005	0,079154001662331315	-0,0029533422257086848	0,087494231427239488
1	1	0	0	0	0	2	199222,62	0,0100000007	2,59256506	2,779481949351935E-005	0,010006133452085386	2,59415519E-005	0,081071817660911322	-0,0030248985191467392	0,089412047425819482
1	1	0	0	0	0	2	199912,62	0,0100000007	2,59436011	2,7794580573112602E-005	0,010006047440752414	2,59592907E-005	0,082989650587704627	-0,0030964554441991917	0,0913298803526128
1	1	0	0	0	0	2	200602,62	0,0100000007	2,59548664	2,7794860981766963E-005	0,01000614838785219	2,59708249E-005	0,084907500116910758	-0,0031680129887099891	0,093247729881818931
1	1	0	0	0	0	2	201292,62	0,0100000007	2,59672785	2,779460174435129E-005	0,010006055062397149	2,59830013E-005	0,086825333350151296	-0,0032395699251964	0,095165563115059469
1	1	0	0	0	0	2	201982,62	0,0100000007	2,59796906	2,7795210191462605E-005	0,010006274103322952	2,59959907E-005	0,088743161865522893	-0,003311126685652777	0,097083391630431066
1	1	0	0	0	0	2	202672,62	0,0100000007	2,59903836	2,7794528835608317E-005	0,010006028815253787	2,60060533E-005	0,090661031670699405	-0,0033826849866872902	0,099001261435607565
1	1	0	0	0	0	2	203052,62	0,0100000007	2,59907651	2,77952508129076E-005	0,010006288727040861	2,60071101E-005	0,09171723905221815	-0,0034220935041776826	0,10005746881712632