File: Experimentelles/Rohdaten/Batterietests/AlteZelle/150511_LLTO_LTO_Tests/ZView-Export/LLTO_LP30_LTO_05_GCPL_C01_loop3.txt
EC-Lab ASCII FILE
Nb header lines : 3
mode	ox/red	error	control changes	Ns changes	counter inc.	Ns	time/s	control/V/mA	Ewe/V	dq/mA.h	<I>/mA	P/W	(Q-Qo)/mA.h	x	Capacity/mA.h
1	0	0	1	1	0	1	125477,97	-0,0100000007	2,77698374	0	0	0	0	0	0
1	0	0	1	0	0	1	126157,98	-0,0100000007	1,95911062	-2,7756565681917386E-005	-0,0099921661636535334	1,95757584E-005	-0,0018873678353213581	7,0420231528883034E-005	0,0018873678353213581
1	0	0	1	0	0	1	126837,99	-0,0100000007	1,51817095	-2,7756696660951197E-005	-0,0099922132988886861	1,51698878E-005	-0,0037748247732870861	0,00014084378759722726	0,0037748247732870861
1	0	0	1	0	0	1	127518,01	-0,0100000007	1,15328646	-2,7756281210109594E-005	-0,0099920637394545536	1,15237117E-005	-0,0056622708985027814	0,00021126694022732992	0,0056622708985027814
1	1	0	0	0	0	2	128187,92	0,0100000007	1,19779027	2,7795338562017104E-005	0,010006124145013706	1,19852384E-005	-0,0067439702481163302	0,00025162659732165478	0,00038914320431339245
1	1	0	0	0	0	2	128867,93	0,0100000007	1,84791458	2,7797000468967274E-005	0,010006722420158851	1,8491568E-005	-0,0048538279520534419	0,00018110284693220314	0,0022792855003762784
1	1	0	0	0	0	2	129547,94	0,0100000007	2,23010564	2,7797727665139571E-005	0,010006984205724077	2,23166317E-005	-0,0029636495310418336	0,00011057774867234422	0,004169463921387888
1	1	0	0	0	0	2	130227,96	0,0100000007	2,43867922	2,7797315158932986E-005	0,010006835689183381	2,44034618E-005	-0,0010734401616086672	4,00514956852664E-005	0,0060596732908210509
1	1	0	0	0	0	2	130907,97	0,0100000007	2,54899049	2,779681554964433E-005	0,01000665581324115	2,55068699E-005	0,00081677381884618099	-3,0474929345229971E-005	0,0079498872712759014
1	1	0	0	0	0	2	131587,97	0,0100000007	2,61015153	2,7796957704911213E-005	0,010006903208066019	2,61195346E-005	0,0027069478392870147	-0,00010099986341387664	0,0098400612917167398
1	1	0	0	0	0	2	132267,97	0,0100000007	2,64351034	2,7796748053023798E-005	0,010006827733398358	2,64531518E-005	0,0045971356504479405	-0,00017152531203283178	0,011730249102877661
1	1	0	0	0	0	2	132947,97	0,0100000007	2,66262436	2,7796497508469555E-005	0,010006737537372944	2,66441839E-005	0,0064873268036170842	-0,00024205088534660691	0,013620440256046813
1	1	0	0	0	0	2	133627,97	0,0100000007	2,67459679	2,7797106978949158E-005	0,010006956946711274	2,67645755E-005	0,0083775223370340928	-0,00031257662209331917	0,015510635789463824
1	1	0	0	0	0	2	134307,97	0,0100000007	2,68223476	2,7795932494517827E-005	0,010006534132382147	2,68398744E-005	0,010267734221791491	-0,00038310296893052608	0,017400847674221226
1	1	0	0	0	0	2	134987,97	0,0100000007	2,68777227	2,779565413855016E-005	0,010006433924249467	2,68950153E-005	0,012157884761031253	-0,00045362702688398989	0,019290998213460979
1	1	0	0	0	0	2	135667,97	0,0100000007	2,69126678	2,7794780436282355E-005	0,010006119391482269	2,69291359E-005	0,014047969062184814	-0,00052414861340539962	0,021181082514614522
1	1	0	0	0	0	2	136347,97	0,0100000007	2,69332886	2,7793845317636925E-005	0,010005782748822587	2,69488628E-005	0,015938004497754333	-0,00059466837668616819	0,023071117950184045
1	1	0	0	0	0	2	137027,97	0,0100000007	2,6944747	2,7793750032937776E-005	0,010005748446336259	2,69602351E-005	0,017827987229805907	-0,00066518617352782157	0,024961100682235619
1	1	0	0	0	0	2	137707,97	0,0100000007	2,69500923	2,7792887329382618E-005	0,010005437873104995	2,6964748E-005	0,019717938096849158	-0,00073570278144317158	0,02685105154927887
1	1	0	0	0	0	2	138387,97	0,0100000007	2,69552493	2,7793452302821811E-005	0,010005641263511282	2,6970456E-005	0,021607876276284982	-0,0008062189159668297	0,028740989728714694
1	1	0	0	0	0	2	139067,97	0,0100000007	2,6959641	2,7793229589549206E-005	0,010005561086745688	2,69746342E-005	0,023497813637290413	-0,0008767350199537495	0,030630927089720128
1	1	0	0	0	0	2	139747,97	0,0100000007	2,69634581	2,7794087268929514E-005	0,01000586985127429	2,69792854E-005	0,025387785286660842	-0,00094725240328566848	0,032520898739090566
1	1	0	0	0	0	2	140427,97	0,0100000007	2,69688058	2,7793528504721405E-005	0,010005668696190843	2,6984093E-005	0,027277777421055011	-0,0010177705509413658	0,034410890873484742
1	1	0	0	0	0	2	141107,97	0,0100000007	2,69741511	2,7794916336321168E-005	0,010006168315488586	2,69907905E-005	0,029167782905692922	-0,0010882891967126066	0,036300896358122669
1	1	0	0	0	0	2	141787,97	0,0100000007	2,69789267	2,7794345447120979E-005	0,010005962795408675	2,69950142E-005	0,031057821345510394	-0,0011588090720859054	0,038190934797940141
1	1	0	0	0	0	2	142467,97	0,0100000007	2,69726253	2,7794809490545757E-005	0,010006129851015458	2,69891589E-005	0,03294787026783031	-0,0012293293385754646	0,040080983720260051
1	1	0	0	0	0	2	143147,97	0,0100000007	2,69724345	2,7794925418061517E-005	0,010006171584914602	2,69890807E-005	0,03483790434419703	-0,0012998490511425493	0,041971017796626771
1	1	0	0	0	0	2	143827,97	0,0100000007	2,69709063	2,7794450237674432E-005	0,010006000520002016	2,69870907E-005	0,036727914857915789	-0,0013703678845555584	0,04386102831034553
1	1	0	0	0	0	2	144507,97	0,0100000007	2,69621229	2,7794186926860778E-005	0,010005905728123933	2,69780467E-005	0,038617935443524122	-0,001440887093764309	0,045751048895953862
1	1	0	0	0	0	2	145187,97	0,0100000007	2,69550562	2,7794457478190048E-005	0,010006003126587229	2,69712382E-005	0,040507971261066963	-0,0015114068712970157	0,047641084713496704
1	1	0	0	0	0	2	145867,97	0,0100000007	2,6956203	2,7794366231809059E-005	0,010005970277895213	2,69722968E-005	0,042397975915436006	-0,001581925486089809	0,049531089367865754
1	1	0	0	0	0	2	146547,97	0,0100000007	2,69556308	2,7794810648334941E-005	0,010006130267819498	2,6972155E-005	0,044288020078589997	-0,0016524455750084883	0,051421133531019744
1	1	0	0	0	0	2	147227,98	0,0100000007	2,69523835	2,779587077597777E-005	0,010006511913711203	2,6969934E-005	0,046178138609261811	-0,0017229684386792464	0,053311252061691552
1	1	0	0	0	0	2	147907,98	0,0100000007	2,69523835	2,7795215820893645E-005	0,010006276129917808	2,69692991E-005	0,04806818145175257	-0,0017934884783222048	0,05520129490418231
1	1	0	0	0	0	2	148587,98	0,0100000007	2,69493294	2,7796323451937901E-005	0,010006674877031352	2,69673183E-005	0,049958257948389952	-0,0018640097736466227	0,057091371400819693
1	1	0	0	0	0	2	149267,98	0,0100000007	2,69504738	2,7795400158502163E-005	0,010006342491446493	2,69675675E-005	0,051848363178568224	-0,0019345321410580835	0,058981476630997965
1	1	0	0	0	0	2	149947,98	0,0100000007	2,69470382	2,7795461983885616E-005	0,010006364748581054	2,69641896E-005	0,053738450986746432	-0,0020050538584312982	0,060871564439176179
1	1	0	0	0	0	2	150627,98	0,0100000007	2,69464636	2,7795133221687546E-005	0,010006246394208266	2,69632947E-005	0,055628515711244998	-0,0020755747145213888	0,062761629163674752
1	1	0	0	0	0	2	151307,98	0,0100000007	2,69443631	2,7795630272736566E-005	0,010006425332557917	2,69616758E-005	0,057518586154450688	-0,0021460957839841312	0,064651699606880422
1	1	0	0	0	0	2	151987,98	0,0100000007	2,69458914	2,779650977238392E-005	0,010006741952381424	2,69640586E-005	0,059408753488968256	-0,002216620468591992	0,066541866941397952
1	1	0	0	0	0	2	152667,98	0,0100000007	2,69514298	2,7796679276507347E-005	0,010006802973856312	2,69697648E-005	0,061298958303132262	-0,0022871465516158528	0,068432071755561933
1	1	0	0	0	0	2	153347,98	0,0100000007	2,69533396	2,7796596677818643E-005	0,01000677323833303	2,69715965E-005	0,063189126107839539	-0,0023576712537671232	0,070322239560269197
1	1	0	0	0	0	2	154027,98	0,0100000007	2,69525743	2,7797037216524285E-005	0,010006931832242248	2,69712582E-005	0,065079261368897766	-0,0024281947416710925	0,072212374821327437
1	1	0	0	0	0	2	154707,98	0,0100000007	2,69495201	2,7796952471602707E-005	0,010006901324075253	2,69681186E-005	0,066969454288804826	-0,0024987203809042342	0,074102567741234483
1	1	0	0	0	0	2	155387,98	0,0100000007	2,69409275	2,7797606377707171E-005	0,010007136730236029	2,69601551E-005	0,068859661009857779	-0,0025692465350766861	0,07599277446228745
1	1	0	0	0	0	2	156067,98	0,0100000007	2,69359612	2,7797599633327789E-005	0,01000713430225983	2,69551783E-005	0,070749888588524864	-0,0026397734674747635	0,077883002040954522
1	1	0	0	0	0	2	156747,98	0,0100000007	2,69334793	2,7795701953220282E-005	0,010006451137528018	2,69508546E-005	0,072640085127376026	-0,0027102992417355757	0,079773198579805683
1	1	0	0	0	0	2	157427,98	0,0100000007	2,69279432	2,7794472750741987E-005	0,010006008624705067	2,69441225E-005	0,074530149371755162	-0,0027808200799117648	0,081663262824184819
1	1	0	0	0	0	2	158107,98	0,0100000007	2,6918776	2,7794710527846797E-005	0,010006094224449405	2,69351804E-005	0,076420160409380774	-0,0028513389328724435	0,083553273861810445
1	1	0	0	0	0	2	158787,98	0,0100000007	2,69185853	2,7797185477645446E-005	0,010006985206237515	2,69373886E-005	0,078310292990887962	-0,0029218623207987603	0,085443406443317619
1	1	0	0	0	0	2	159467,98	0,0100000007	2,69174409	2,779621794571479E-005	0,010006636894796976	2,69353059E-005	0,080200509100979136	-0,0029923888252888512	0,087333622553408794
1	1	0	0	0	0	2	160147,98	0,0100000007	2,69153404	2,7794938666487318E-005	0,010006176354347144	2,69319644E-005	0,08209057640700503	-0,0030629097776991974	0,089223689859434688
1	1	0	0	0	0	2	160827,98	0,0100000007	2,69122839	2,7794984504632234E-005	0,010006192856076733	2,69289503E-005	0,083980596245575731	-0,0031334289590349696	0,091113709698005389
1	1	0	0	0	0	2	161507,98	0,0100000007	2,69078922	2,779399499374752E-005	0,010005836632213968	2,6923597E-005	0,085870589944542093	-0,0032039471650669594	0,09300370339697175
1	1	0	0	0	0	2	162187,98	0,0100000007	2,69044566	2,7794035709514797E-005	0,010005851289887896	2,69201992E-005	0,087760571972848384	-0,0032744649356509299	0,094893685425278042
1	1	0	0	0	0	2	162867,98	0,0100000007	2,68977737	2,7793922262473238E-005	0,010005810448959325	2,69134034E-005	0,089650548145440026	-0,0033449824877503142	0,096783661597869696
1	1	0	0	0	0	2	163547,98	0,0100000007	2,6894145	2,779414658413993E-005	0,010005891204746698	2,69099892E-005	0,091540523620902784	-0,0034155000138388819	0,098673637073332442
1	1	0	0	0	0	2	164047,92	0,0100000007	2,6894908	2,7626558579659712E-005	0,010005995746118842	2,69110333E-005	0,092930052311147213	-0,0034673451975130957	0,10006316576357688