File: Experimentelles/Rohdaten/Batterietests/AlteZelle/150511_LLTO_LTO_Tests/ZView-Export/LLTO_LP30_LTO_02_CV_C01_loop3.txt
EC-Lab ASCII FILE
Nb header lines : 3
mode	ox/red	error	control changes	counter inc.	time/s	control/V	Ewe/V	<I>/mA	cycle number	(Q-Qo)/C	P/W
2	1	0	0	0	2958,08	0,270991862	0,271520317	-0,61628895998001101	4	0	0,000167334976
2	1	0	0	0	2965,21	0,342297226	0,34257409	-0,055002998580069606	4	-0,00146536576	1,8842602E-005
2	1	0	1	0	2972,44	0,414602727	0,415091515	0,0081890526926144678	4	-0,00157960365	3,39920621E-006
2	1	0	0	0	2979,63	0,486508191	0,486766964	0,029244338754021299	4	-0,00143546483	1,42351782E-005
2	1	0	1	0	2986,78	0,558013678	0,558442295	0,042717110123097146	4	-0,00117307063	2,38550401E-005
2	1	0	1	0	2993,93	0,629519105	0,62984705	0,053920692997053043	4	-0,000824473624	3,39617909E-005
2	1	0	0	0	3001,08	0,701024652	0,701652706	0,06570036115590505	4	-0,000393965485	4,60988376E-005
2	1	0	1	0	3008,23	0,772530019	0,773077548	0,075215870107058432	4	0,000113317285	5,81476997E-005
2	1	0	1	0	3015,38	0,844035447	0,844552338	0,080446756173236045	4	0,000675458112	6,79414952E-005
2	1	0	1	0	3022,46	0,914840817	0,915536046	0,083603718550875789	4	0,00126132939	7,65422155E-005
2	1	0	0	0	3029,61	0,986346304	0,98691076	0,08451681762623287	4	0,00186570291	8,34105595E-005
2	1	0	1	0	3036,76	1,05785179	1,05839562	0,085386299547584141	4	0,00247602281	9,03724867E-005
2	1	0	1	0	3043,91	1,12935722	1,12985051	0,086644635050712512	4	0,00309277605	9,78954849E-005
2	1	0	0	0	3051,06	1,20086265	1,2014457	0,088372164231259315	4	0,00372014474	0,000106174353
2	1	0	1	0	3058,21	1,27236819	1,27300072	0,087338761717546061	4	0,00435792003	0,000111182308
2	1	0	0	0	3065,36	1,3438735	1,34427512	0,08216603629989527	4	0,00496822968	0,000110453759
2	1	0	0	0	3072,51	1,41537905	1,41562986	0,076492004309936256	4	0,00553602446	0,000108284366
2	1	0	1	0	3079,67	1,48688459	1,48728514	0,076603220736918605	4	0,00608361233	0,00011393083
2	1	0	0	0	3086,82	1,5583899	1,55924118	0,080762243208786112	4	0,00664669694	0,000125927822
2	1	0	1	0	3093,97	1,62989604	1,63038421	0,086913337723948826	4	0,00724755041	0,000141702127
2	1	0	1	0	3101,12	1,70140088	1,70189023	0,094651954772416282	4	0,00790033862	0,000161087242
2	1	0	0	0	3108,31	1,77330625	1,77374589	0,10336250656594837	4	0,00861589704	0,000183338823
2	1	0	1	0	3115,46	1,8448118	1,84524107	0,11200526158791058	4	0,00938908663	0,000206676705
2	1	0	1	0	3122,61	1,91631722	1,91703653	0,12042787977649506	4	0,0102240685	0,000230864651
2	1	0	0	0	3129,76	1,98782265	1,98850155	0,12812961199476102	4	0,0111173093	0,000254785933
2	1	0	1	0	3136,91	2,05932808	2,06011677	0,13423046931469163	4	0,0120607568	0,000276530453
2	1	0	0	0	3144,06	2,13083363	2,13137078	0,13959965556083898	4	0,0130446926	0,000297538616
2	1	0	0	0	3151,21	2,20233917	2,20297647	0,14376322738826286	4	0,014062115	0,00031670701
2	1	0	1	0	3158,36	2,27384448	2,27440119	0,14856531928914298	4	0,0151108913	0,000337897131
2	1	0	0	0	3165,51	2,34534979	2,34605646	0,15393668902106582	4	0,0161948521	0,000361144164
2	1	0	1	0	3172,66	2,41685557	2,41740108	0,1596217574551697	4	0,0173190348	0,000385869818
2	1	0	1	0	3179,81	2,48836088	2,48894596	0,16562305146362611	4	0,0184856858	0,000412226829
2	1	0	0	0	3186,96	2,55986643	2,56057119	0,17158940574154259	4	0,0196944866	0,000439366879
2	1	0	1	0	3194,11	2,63137197	2,63211632	0,17873371885313328	4	0,0209498405	0,000470447936
2	1	0	0	0	3201,26	2,70287728	2,70341086	0,18704886377478691	4	0,0222618598	0,000505669916
2	1	0	0	0	3208,42	2,77438283	2,77502608	0,19489431877930886	4	0,0236301478	0,000540836831
2	1	0	1	0	3215,57	2,84588838	2,84650111	0,2033834863298889	4	0,0250554308	0,0005789313
2	1	0	0	0	3222,72	2,91739368	2,91793585	0,21502080171679338	4	0,0265545696	0,000627416885
2	1	0	1	0	3229,87	2,98889923	2,98942065	0,23135701760960138	4	0,0281527378	0,000691623427
2	1	0	1	0	3237,02	3,06040454	3,06099606	0,25044992115969488	4	0,0298769958	0,00076662621
2	1	0	0	0	3244,17	3,13190985	3,13258076	0,27554780997646323	4	0,0317580663	0,000863175781
2	1	0	1	0	3251,32	3,20341539	3,20402551	0,30846411936605997	4	0,0338436887	0,00098832685
2	1	0	1	0	3258,47	3,27491999	3,27539992	0,35480438588470522	4	0,0362087823	0,00116212631
2	1	0	0	0	3265,62	3,34642625	3,34708571	0,42245646240189581	4	0,0389796197	0,00141399796
2	1	0	1	0	3272,77	3,4179318	3,41862082	0,50834717120354611	4	0,0423029102	0,00173784618
2	1	0	0	0	3279,92	3,4894371	3,49009585	0,60334433910126426	4	0,0462775268	0,00210572965
2	1	0	0	0	3287,07	3,56094241	3,56177187	0,70457144655071066	4	0,0509549268	0,00250952272
2	1	0	1	0	3294,22	3,6324482	3,63317609	0,80221699581791744	4	0,056355156	0,00291459565
2	1	0	0	0	3301,37	3,7039535	3,70457077	0,88198967619488576	4	0,0623911619	0,00326739321
2	1	0	1	0	3308,52	3,77545905	3,77599502	0,9498351880659657	4	0,0689519346	0,00358657283
2	1	0	1	0	3315,71	3,84736466	3,84807158	1,0135472038139853	4	0,0760085434	0,00390020222
2	1	0	0	0	3322,86	3,91886997	3,91975713	1,0981955801447238	4	0,083544448	0,00430466002
2	1	0	1	0	3330,01	3,99037552	3,99130225	1,1854402755076645	4	0,0917281061	0,00473145023
2	1	0	0	0	3337,17	4,06188107	4,06263685	1,2665513853232051	4	0,100487933	0,00514553813
2	1	0	1	0	3344,32	4,13338757	4,13431406	1,3903530502729922	4	0,109949477	0,00574815599
2	0	0	1	1	3351,41	4,19569111	4,19675446	1,512871013333399	4	0,120539933	0,00634914823
2	0	0	0	1	3358,56	4,12418556	4,12506962	0,71825594470525722	4	0,128144145	0,00296285586
2	0	0	1	1	3365,75	4,05227995	4,05311394	0,3239172601606697	4	0,131727576	0,00131287356
2	0	0	1	1	3372,90	3,98077464	3,98148704	0,12797952734693262	4	0,13326101	0,000509548816
2	0	0	0	1	3380,09	3,90886903	3,90940189	0,021607271672110074	4	0,133761451	8,44715105E-005
2	0	0	1	1	3387,32	3,83656359	3,83702469	-0,045911051633690189	4	0,133653879	0,000176161833
2	0	0	0	1	3394,47	3,76505852	3,76553965	-0,089542380980371315	4	0,133155242	0,000337175385
2	0	0	0	1	3401,66	3,69315219	3,69389272	-0,11825146987110678	4	0,132399365	0,000436808245
2	0	0	1	1	3408,81	3,62164736	3,62229943	-0,14025876065716125	4	0,13146846	0,000508059224
2	0	0	0	1	3415,96	3,55014205	3,55098462	-0,15769217935545971	4	0,130398318	0,000559962529
2	0	0	1	1	3423,11	3,4786365	3,47928953	-0,17116528714541309	4	0,129215956	0,00059553358
2	0	0	1	1	3430,26	3,40713096	3,40787458	-0,18251552945002912	4	0,127946243	0,00062199001
2	0	0	0	1	3437,41	3,33562565	3,33634949	-0,19196958533333008	4	0,126603961	0,000640477636
2	0	0	1	1	3444,56	3,2641201	3,26476455	-0,200692415004596	4	0,12519528	0,000655213487
2	0	0	0	1	3451,71	3,19261432	3,19318938	-0,20910192599209677	4	0,123726197	0,000667702057
2	0	0	0	1	3458,86	3,12110949	3,12184477	-0,21711792944309626	4	0,122198135	0,000677808479
2	0	0	1	1	3466,02	3,04960394	3,05022955	-0,22550076758489101	4	0,120611154	0,000687829102
2	0	0	0	1	3473,17	2,97809839	2,97871447	-0,2331656151606385	4	0,118966661	0,00069453381
2	0	0	1	1	3480,32	2,90659308	2,90717959	-0,23998294421471654	4	0,117269881	0,000697673531
2	0	0	1	1	3487,47	2,8350873	2,83555436	-0,24452920490875862	4	0,115532242	0,000693375827
2	0	0	0	1	3494,62	2,76358199	2,76419973	-0,2460276309090359	4	0,113771953	0,000680069497
2	0	0	1	1	3501,77	2,69207668	2,69254446	-0,24342078552581459	4	0,112017602	0,000655421289
2	0	0	1	1	3508,92	2,62057114	2,621099	-0,23884464338573296	4	0,110288866	0,000626035442
2	0	0	0	1	3516,07	2,54906559	2,54961467	-0,23436540830880493	4	0,108593181	0,000597541512
2	0	0	1	1	3523,22	2,47756028	2,47820973	-0,22954816751492579	4	0,106931344	0,000568868476
2	0	0	0	1	3530,37	2,4060545	2,40662456	-0,22508666943758726	4	0,105302833	0,000541699119
2	0	0	0	1	3537,52	2,33454919	2,33500934	-0,21946493701914928	4	0,103710145	0,00051245268
2	0	0	1	1	3544,67	2,26304388	2,26347423	-0,21368930201667082	4	0,102156617	0,000483680225
2	0	0	0	1	3551,82	2,1915381	2,19218969	-0,20857517359157411	4	0,100642912	0,00045723634
2	0	0	1	1	3558,97	2,12003279	2,12033391	-0,20360154658555984	4	0,0991664156	0,000431703258
2	0	0	1	1	3566,12	2,04852724	2,04902959	-0,20071814054002381	4	0,0977181494	0,000411277404
2	0	0	0	1	3573,27	1,97702193	1,97769511	-0,19893730098071139	4	0,0962871164	0,000393437338
2	0	0	1	1	3580,42	1,90551651	1,90623021	-0,1965775484374409	4	0,0948699191	0,000374722062
2	0	0	0	1	3587,57	1,83401084	1,83471513	-0,19334305632704307	4	0,093472138	0,000354729418
2	0	0	0	1	3594,73	1,76250553	1,76316011	-0,19031514169182618	4	0,0920976773	0,000335556077
2	0	0	1	1	3601,88	1,6910001	1,69149458	-0,18856670521199702	4	0,0907411054	0,000318959559
2	0	0	0	1	3609,03	1,61949444	1,6199497	-0,18865149091773949	4	0,0893898159	0,000305605936
2	0	0	1	1	3616,18	1,54798925	1,54844475	-0,19089217398626134	4	0,0880310535	0,000295585982
2	0	0	1	1	3623,33	1,4764837	1,47679949	-0,19515240727923811	4	0,0866493806	0,000288200972
2	0	0	0	1	3630,48	1,40497816	1,40565538	-0,20098911683696042	4	0,0852292329	0,000282521447
2	0	0	1	1	3637,63	1,33347285	1,33388984	-0,20772855837519088	4	0,083763659	0,000277087005
2	0	0	0	1	3644,78	1,26196718	1,26249456	-0,2138445138581031	4	0,0822526664	0,00026997755
2	0	0	0	1	3651,93	1,19046175	1,19089985	-0,21966910036280752	4	0,0806987956	0,000261603913
2	0	0	1	1	3659,08	1,11895645	1,11931467	-0,22682385922720093	4	0,0791003555	0,000253887265
2	0	0	0	1	3666,23	1,04745102	1,04783976	-0,24006820757252534	4	0,0774332285	0,000251553021
2	0	0	0	1	3673,38	0,975945592	0,976374984	-0,2623017464453976	4	0,0756372213	0,00025610486
2	0	0	1	1	3680,53	0,904440105	0,905200839	-0,29039615439251021	4	0,0736592934	0,000262866844
2	0	0	0	1	3687,68	0,832934678	0,833415091	-0,31924059987068211	4	0,071474269	0,000266059942
2	0	0	1	1	3694,83	0,76142925	0,761809945	-0,34240525332279546	4	0,0691016391	0,000260847737
2	0	0	1	1	3701,98	0,689923763	0,690355122	-0,36026602036630259	4	0,0665835142	0,000248711498
2	0	0	0	1	3709,13	0,618418276	0,618769884	-0,37568605869698054	4	0,0639494434	0,000232463222
2	0	0	1	1	3716,28	0,546912789	0,547174692	-0,39337764618297478	4	0,0611976609	0,000215246298
2	0	0	0	1	3723,44	0,475407392	0,475539446	-0,41763514513149926	4	0,0582973063	0,000198601992
2	0	0	0	1	3730,59	0,403901935	0,404174805	-0,45032795860121722	4	0,05519858	0,000182011208
2	0	0	1	1	3737,74	0,332396477	0,332679898	-0,50321799159671142	4	0,0518038683	0,000167410515
2	0	0	0	1	3743,93	0,270391822	0,271039128	-0,58398801606634394	4	0,048459582	0,000158283598