File: Experimentelles/Rohdaten/Batterietests/AlteZelle/Studenten_Batterietests/LLTO_LP30_Li CV/ECLab-Export/LLTO_LP30_Li_04_OCV_C01.mpt
EC-Lab ASCII FILE
Nb header lines : 48

Open Circuit Voltage

Run on channel : 1 (SN 6985)
Grouped channel(s) : 1
User :
CE vs. WE compliance from -10 V to 10 V
Electrode connection : standard
Ewe ctrl range : min = 0,00 V, max = 5,00 V
Acquisition started on : 04.29.2015 11:07:38
Saved on :
	File : LLTO_LP30_Li_04_OCV_C01.mpr
	Directory : C:\Hupfer\Studenten Batterietests\LLTO_LP30_Li CV\
	Host : 192.168.0.2
Device : VMP3 (SN 0324)
Address : 192.168.0.1
EC-Lab for windows v10.33 (software)
Internet server v10.33 (firmware)
Command interpretor v10.32 (firmware)
Electrode material : LATP vs Li
Initial state : charged
Electrolyte : DME:Diox 1:2, 1M LiTFSi
Comments : LATP als Elektrode, normaler Seperator und Elektrolyt, Goldschicht teilweise vorhanden, elektrolytschonend, Probe2
Mass of active material : 0,001 mg
 at x = 0,000
Molecular weight of active material (at x = 0) : 0,001 g/mol
Atomic weight of intercalated ion : 0,001 g/mol
Acquisition started at : xo = 0,000
Number of e- transfered per intercalated ion : 1
for DX = 1, DQ = 26,801 mA.h
Battery capacity : 0,000 A.h
Reference electrode : Li+/Li (-3,020 V)
Electrode surface area : 0,001 cm²
Characteristic mass : 0,001 g
Create one data file per loop
tR (h:m:s)          1:00:0,0000
dER/dt (mV/h)       0,0
dER (mV)            0,00
dtR (s)             5,0000
E range min (V)     0,000
E range max (V)     5,000

Number of loops : 1
Loop 0 from point number 0 to 720

mode	error	time/s	Ewe/V
3	0	8041,0634	2,11830497
3	0	8056,0634	2,18448782
3	0	8071,0634	2,21158361
3	0	8086,0634	2,22869253
3	0	8101,0634	2,24077964
3	0	8116,0634	2,24973512
3	0	8131,0634	2,25672388
3	0	8146,0634	2,26231861
3	0	8161,0634	2,26684427
3	0	8176,0634	2,2704339
3	0	8191,0634	2,27366114
3	0	8206,0634	2,27616239
3	0	8221,0634	2,27843475
3	0	8236,0634	2,28028703
3	0	8251,0634	2,28198647
3	0	8266,0634	2,28341866
3	0	8281,0634	2,28462148
3	0	8296,0634	2,28561449
3	0	8311,0634	2,28649282
3	0	8326,0634	2,28756213
3	0	8341,0634	2,28819227
3	0	8356,0634	2,28893709
3	0	8371,0634	2,28941441
3	0	8386,0634	2,28994894
3	0	8401,0634	2,29042649
3	0	8416,0634	2,2908082
3	0	8431,0634	2,29109478
3	0	8446,0634	2,29145741
3	0	8461,0634	2,29176307
3	0	8476,0634	2,29172492
3	0	8491,0634	2,29201126
3	0	8506,0634	2,29201126
3	0	8521,0634	2,2922976
3	0	8536,0634	2,29233599
3	0	8551,0634	2,29239321
3	0	8566,0634	2,29248857
3	0	8581,0634	2,29252672
3	0	8596,0634	2,2924695
3	0	8611,0634	2,29262233
3	0	8626,0634	2,29256511
3	0	8641,0634	2,2924695
3	0	8656,0634	2,29250765
3	0	8671,0634	2,29241228
3	0	8686,0634	2,29237413
3	0	8701,0634	2,29231668
3	0	8716,0634	2,29214501
3	0	8731,0634	2,29204941
3	0	8746,0634	2,29203033
3	0	8761,0634	2,29195404
3	0	8776,0634	2,29166746
3	0	8791,0634	2,29155302
3	0	8806,0634	2,2914958
3	0	8821,0634	2,29138112
3	0	8836,0634	2,29105639
3	0	8851,0634	2,29096103
3	0	8866,0634	2,29084659
3	0	8881,0634	2,29071283
3	0	8896,0634	2,29044557
3	0	8911,0634	2,29019713
3	0	8926,0634	2,29006362
3	0	8941,0634	2,28998709
3	0	8956,0634	2,28987265
3	0	8971,0634	2,28956699
3	0	8986,0634	2,28947163
3	0	9001,0634	2,28928065
3	0	9016,0634	2,28914714
3	0	9031,0634	2,28876519
3	0	9046,0634	2,28866959
3	0	9061,0634	2,28844047
3	0	9076,0634	2,2881732
3	0	9091,0634	2,28815413
3	0	9106,0634	2,28788686
3	0	9121,0634	2,2876575
3	0	9136,0634	2,28740931
3	0	9151,0634	2,28723764
3	0	9166,0634	2,28714204
3	0	9181,0634	2,28674102
3	0	9196,0634	2,28658819
3	0	9211,0634	2,28639746
3	0	9226,0634	2,28618741
3	0	9241,0634	2,2859199
3	0	9256,0634	2,28584361
3	0	9271,0634	2,28555727
3	0	9286,0634	2,28548074
3	0	9301,0634	2,28513718
3	0	9316,0634	2,28490806
3	0	9331,0634	2,28481245
3	0	9346,0634	2,2844305
3	0	9361,0634	2,28437328
3	0	9376,0634	2,28399134
3	0	9391,0634	2,28389597
3	0	9406,0634	2,28368592
3	0	9421,0634	2,2835331
3	0	9436,0634	2,28320861
3	0	9451,0634	2,28307486
3	0	9466,0634	2,28280759
3	0	9481,0634	2,28255939
3	0	9496,0634	2,28240657
3	0	9511,0634	2,28217745
3	0	9526,0634	2,28198647
3	0	9541,0634	2,28189087
3	0	9556,0634	2,28166175
3	0	9571,0634	2,28137541
3	0	9586,0634	2,28112721
3	0	9601,0634	2,28089809
3	0	9616,0634	2,28074527
3	0	9631,0634	2,28055429
3	0	9646,0634	2,28034425
3	0	9661,0634	2,28017235
3	0	9676,0634	2,27994323
3	0	9691,0634	2,27961874
3	0	9706,0634	2,27961874
3	0	9721,0634	2,27931309
3	0	9736,0634	2,27902675
3	0	9751,0634	2,27900767
3	0	9766,0634	2,27868295
3	0	9781,0634	2,27851105
3	0	9796,0634	2,27832031
3	0	9811,0634	2,27814841
3	0	9826,0634	2,27793837
3	0	9841,0634	2,27769017
3	0	9856,0634	2,27753735
3	0	9871,0634	2,27730823
3	0	9886,0634	2,2769835
3	0	9901,0634	2,27690721
3	0	9916,0634	2,27675438
3	0	9931,0634	2,27660155
3	0	9946,0634	2,27635336
3	0	9961,0634	2,2761817
3	0	9976,0634	2,27599072
3	0	9991,0634	2,27572322
3	0	10006,0634	2,2755897
3	0	10021,0634	2,27536058
3	0	10036,0634	2,27515054
3	0	10051,0634	2,27499771
3	0	10066,0634	2,27484488
3	0	10081,0634	2,27461576
3	0	10096,0634	2,27440572
3	0	10111,0634	2,27425289
3	0	10126,0634	2,27415752
3	0	10141,0634	2,27381372
3	0	10156,0634	2,27377558
3	0	10171,0634	2,27350831
3	0	10186,0634	2,27329826
3	0	10201,0634	2,27320266
3	0	10216,0634	2,27297354
3	0	10231,0634	2,27289724
3	0	10246,0634	2,2726109
3	0	10261,0634	2,272439
3	0	10276,0634	2,27217174
3	0	10291,0634	2,27207613
3	0	10306,0634	2,2719233
3	0	10321,0634	2,27173257
3	0	10336,0634	2,27161789
3	0	10351,0634	2,27138877
3	0	10366,0634	2,27117872
3	0	10381,0634	2,27115965
3	0	10396,0634	2,27096868
3	0	10411,0634	2,27083492
3	0	10426,0634	2,2704339
3	0	10441,0634	2,27035761
3	0	10456,0634	2,27018571
3	0	10471,0634	2,26997566
3	0	10486,0634	2,26982307
3	0	10501,0634	2,26968932
3	0	10516,0634	2,26947927
3	0	10531,0634	2,26949835
3	0	10546,0634	2,2692883
3	0	10561,0634	2,26913548
3	0	10576,0634	2,26890635
3	0	10591,0634	2,26865816
3	0	10606,0634	2,26871538
3	0	10621,0634	2,26837182
3	0	10636,0634	2,26819992
3	0	10651,0634	2,26810431
3	0	10666,0634	2,26789451
3	0	10681,0634	2,2677989
3	0	10696,0634	2,26764607
3	0	10711,0634	2,26753163
3	0	10726,0634	2,26737881
3	0	10741,0634	2,26718783
3	0	10756,0634	2,26692057
3	0	10771,0634	2,26676774
3	0	10786,0634	2,26661491
3	0	10801,0634	2,26657677
3	0	10816,0634	2,26636672
3	0	10831,0634	2,26632857
3	0	10846,0634	2,26609945
3	0	10861,0634	2,26594663
3	0	10876,0634	2,26575565
3	0	10891,0634	2,26556492
3	0	10906,0634	2,26541209
3	0	10921,0634	2,26535487
3	0	10936,0634	2,26525927
3	0	10951,0634	2,26510644
3	0	10966,0634	2,26491547
3	0	10981,0634	2,26478195
3	0	10996,0634	2,26453376
3	0	11011,0634	2,26441908
3	0	11026,0634	2,26445723
3	0	11041,0634	2,26418996
3	0	11056,0634	2,26418996
3	0	11071,0634	2,26396084
3	0	11086,0634	2,26380801
3	0	11101,0634	2,2636745
3	0	11116,0634	2,26354074
3	0	11131,0634	2,26336884
3	0	11146,0634	2,26310158
3	0	11161,0634	2,26300621
3	0	11176,0634	2,26281524
3	0	11191,0634	2,2627387
3	0	11206,0634	2,26264334
3	0	11221,0634	2,26247144
3	0	11236,0634	2,26229954
3	0	11251,0634	2,26220417
3	0	11266,0634	2,2620132
3	0	11281,0634	2,26197505
3	0	11296,0634	2,26180315
3	0	11311,0634	2,26172662
3	0	11326,0634	2,26157403
3	0	11341,0634	2,26145935
3	0	11356,0634	2,26130676
3	0	11371,0634	2,26128745
3	0	11386,0634	2,2610774
3	0	11401,0634	2,26086736
3	0	11416,0634	2,2606957
3	0	11431,0634	2,26063824
3	0	11446,0634	2,26054287
3	0	11461,0634	2,26023722
3	0	11476,0634	2,2603519
3	0	11491,0634	2,2601037
3	0	11506,0634	2,26004648
3	0	11521,0634	2,25983644
3	0	11536,0634	2,25970268
3	0	11551,0634	2,25968361
3	0	11566,0634	2,25945449
3	0	11581,0634	2,25935888
3	0	11596,0634	2,25926352
3	0	11611,0634	2,25907254
3	0	11626,0634	2,2590344
3	0	11641,0634	2,25888157