File: Experimentelles/Rohdaten/Batterietests/AlteZelle/Studenten_Batterietests/LLTO_LP30_Li CV/ECLab-Export/LLTO_LP30_Li_02_CV_C01_loop2.mpt
EC-Lab ASCII FILE
Nb header lines : 3
mode	ox/red	error	control changes	counter inc.	time/s	control/V	Ewe/V	<I>/mA	cycle number	(Q-Qo)/C	P/W
2	0	0	1	0	2080,30	2,10933256	2,10988975	-0,046189095824956896	3	0	9,74538998E-005
2	0	0	0	0	2086,53	2,04702735	2,04755664	-0,045134317896251219	3	-0,000274230784	9,24150736E-005
2	0	0	0	0	2092,78	1,98452246	1,98484313	-0,04776891058039223	3	-0,000566011935	9,48137967E-005
2	0	0	1	0	2099,03	1,92201769	1,92271113	-0,05073061094541753	3	-0,000875333906	9,75403091E-005
2	0	0	1	0	2105,28	1,85951293	1,86007798	-0,054004051218119712	3	-0,00120392931	0,000100451747
2	0	0	1	0	2111,53	1,79700804	1,79720402	-0,058377708502424294	3	-0,00155614852	0,000104916653
2	0	0	0	0	2117,78	1,73450327	1,73468101	-0,064119475505625357	3	-0,00193942664	0,000111226836
2	0	0	0	0	2124,03	1,6719985	1,67263925	-0,072179916198365389	3	-0,00236660475	0,000120730961
2	0	0	0	0	2130,28	1,60949397	1,60998583	-0,082083954572832627	3	-0,00284932321	0,000132154004
2	0	0	1	0	2136,57	1,54658914	1,5469017	-0,10279993336492542	3	-0,0034227944	0,000159021394
2	0	0	1	0	2142,82	1,48408437	1,48441875	-0,16816140889810992	3	-0,00423584785	0,000249621953
2	0	0	0	0	2149,07	1,4215796	1,42201591	-0,30556970842493139	3	-0,00568445213	0,000434524991
2	0	0	0	0	2155,32	1,35907483	1,35938263	-0,48213878134265542	3	-0,00814008527	0,000655411102
2	0	0	0	0	2161,57	1,29656994	1,29703021	-0,65804769610985933	3	-0,0117118452	0,000853507721
2	0	0	1	0	2167,82	1,23406518	1,23437679	-0,82776590219388352	3	-0,0163474437	0,00102177507
2	0	0	1	0	2174,11	1,17116046	1,17163336	-1,0044400915503485	3	-0,0221342631	0,0011768355
2	0	0	0	0	2180,36	1,10865569	1,10911036	-1,1237472534800546	3	-0,0288221482	0,00124635966
2	0	0	0	0	2186,62	1,0461508	1,04665756	-1,183746652367212	3	-0,0360637307	0,00123897742
2	0	0	0	0	2192,87	0,983646214	0,983853877	-1,1900331921254677	3	-0,0435155481	0,00117081881
2	0	0	1	0	2199,12	0,921141446	0,921631575	-1,1347520106161646	3	-0,0508137792	0,00104582333
2	0	0	1	0	2205,37	0,858636618	0,858797848	-1,0845530815422571	3	-0,057691399	0,000931411865
2	1	0	0	0	2211,56	0,803332388	0,803522527	-1,1730554004510277	3	-0,064770259	0,000942576444
2	1	0	0	0	2217,85	0,866237164	0,866697252	-0,42149893225480992	3	-0,0695631802	0,000365311978
2	1	0	0	0	2224,14	0,929142058	0,9296211	0,073711269612734669	3	-0,0705706626	6,852355E-005
2	1	0	1	0	2230,43	0,992046714	0,992434919	0,45035766499737926	3	-0,0688727945	0,000446950668
2	1	0	1	0	2236,68	1,05455148	1,05486763	0,57696531387045978	3	-0,0654165745	0,000608622038
2	1	0	0	0	2242,93	1,11705625	1,1175108	0,53189160690332749	3	-0,0620257184	0,000594394631
2	1	0	0	0	2249,18	1,17956102	1,1802243	0,60221147242312486	3	-0,0585140251	0,000710744585
2	1	0	0	0	2255,43	1,24206579	1,24261713	0,71114940320451763	3	-0,0544150248	0,000883686414
2	1	0	1	0	2261,68	1,30457067	1,30499971	0,81722917159398272	3	-0,0496273376	0,00106648379
2	1	0	1	0	2267,93	1,36707544	1,36738241	0,90630332566797018	3	-0,0442258269	0,00123926322
2	1	0	0	0	2274,18	1,42958021	1,43010581	0,97298743606855526	3	-0,0383438803	0,00139147497
2	1	0	0	0	2280,46	1,49238491	1,49268889	1,1094276141375339	3	-0,0318506993	0,0016560303
2	1	0	0	0	2286,71	1,55488968	1,55520189	1,1844564853236133	3	-0,0245811939	0,00184206897
2	1	0	1	0	2292,96	1,61739457	1,61800551	0,94150527442494797	3	-0,0177205764	0,00152336073
2	1	0	1	0	2299,25	1,68029916	1,68079913	0,34978080238215622	3	-0,0134913437	0,000587911287
2	1	0	0	0	2305,50	1,74280405	1,7434926	0,09060657666608041	3	-0,012499894	0,000157971896
2	1	0	0	0	2311,76	1,80530882	1,80566478	0,069067711612054822	3	-0,0120099299	0,000124713129
2	1	0	0	0	2318,01	1,86781359	1,86830807	0,058947263033284352	3	-0,0116105201	0,000110131645
2	1	0	1	0	2324,26	1,93031836	1,9308511	0,053321616995769094	3	-0,0112588862	0,000102956103
2	1	0	1	0	2330,51	1,99282312	1,99327385	0,049968709761742502	3	-0,0109351957	9,96013259E-005
2	1	0	0	0	2336,80	2,05572772	2,0561676	0,047798466538855053	3	-0,0106263282	9,82816564E-005
2	1	0	0	0	2343,05	2,11823249	2,11861038	0,046302819129778074	3	-0,0103314789	9,80976329E-005
2	1	0	0	0	2349,30	2,18073726	2,18123364	0,045525077856533728	3	-0,0100437263	9,93008289E-005
2	1	0	1	0	2355,55	2,24324203	2,24367642	0,045207577951562995	3	-0,00975934416	0,000101431178
2	1	0	1	0	2361,80	2,30574679	2,30624962	0,045450677260911789	3	-0,00947504211	0,00010482061
2	1	0	1	0	2368,05	2,36825109	2,36856174	0,046217166859393587	3	-0,00918691419	0,000109468216
2	1	0	0	0	2374,30	2,43075657	2,43133569	0,047232660464942458	3	-0,00889320672	0,000114838454
2	1	0	0	0	2380,55	2,49326134	2,49362826	0,04942884267074976	3	-0,00858911406	0,000123257152
2	1	0	1	0	2386,80	2,55576611	2,55633163	0,051245352350330451	3	-0,00827314518	0,00013100011
2	1	0	1	0	2393,05	2,61827087	2,61892462	0,053554231281547571	3	-0,00794422254	0,000140254488
2	1	0	0	0	2399,30	2,68077588	2,68138838	0,056134124716379238	3	-0,00759990793	0,000150517386
2	1	0	0	0	2405,55	2,74328041	2,74382019	0,059082010198229453	3	-0,00723795407	0,000162110417
2	1	0	0	0	2411,80	2,80578518	2,8062129	0,062132724929445658	3	-0,00685726851	0,000174357658
2	1	0	1	0	2418,05	2,86828995	2,86873603	0,065387217308549683	3	-0,00645679189	0,000187578669
2	1	0	1	0	2424,30	2,93079472	2,93132901	0,068852782618098854	3	-0,00603493582	0,00020183016
2	1	0	1	0	2430,55	2,99329853	2,99377012	0,072772459377149824	3	-0,00559030985	0,000217864013
2	1	0	0	0	2436,80	3,05580401	3,05618477	0,07754761830437929	3	-0,00511926739	0,000236999855
2	1	0	0	0	2443,06	3,11830902	3,11868787	0,082809461338911091	3	-0,00461719092	0,000258256856
2	1	0	1	0	2449,31	3,18081379	3,18126082	0,088992430343447834	3	-0,00407982804	0,000283108122
2	1	0	1	0	2455,56	3,24331856	3,24416447	0,096762470163715085	3	-0,00349923177	0,000313913362
2	1	0	1	0	2461,85	3,30622339	3,3066175	0,10758457608365734	3	-0,0028567072	0,000355741038
2	1	0	0	0	2468,10	3,36872816	3,36938071	0,12234399149504771	3	-0,00213839766	0,000412223482
2	1	0	0	0	2474,35	3,43123293	3,43176341	0,1416592785778139	3	-0,00131325808	0,000486141129
2	1	0	1	0	2480,60	3,49373722	3,49423647	0,16411590265731024	3	-0,000356831995	0,00057345978
2	1	0	1	0	2486,85	3,55624199	3,55673933	0,19146110051466726	3	0,000753988978	0,000680977246
2	1	0	1	0	2493,10	3,618747	3,61918235	0,22377550648525347	3	0,00205193995	0,000809884339
2	1	0	0	0	2499,35	3,68125176	3,68174529	0,25149676785804333	3	0,00354607776	0,000925947039
2	1	0	0	0	2505,60	3,74375653	3,74428844	0,26785957153576189	3	0,00517471367	0,00100294349
2	1	0	1	0	2511,85	3,8062613	3,80682158	0,28163736422235664	3	0,00689365342	0,0010721432
2	1	0	1	0	2518,10	3,86876607	3,86909389	0,29743642491909216	3	0,00870330259	0,00115080946
2	1	0	1	0	2524,35	3,93127084	3,93153644	0,31589098748130163	3	0,0106199263	0,00124193693
2	1	0	0	0	2530,60	3,99377584	3,99456096	0,33664107392542138	3	0,0126605872	0,00134473329
2	1	0	0	0	2536,85	4,05628061	4,05680275	0,35689628318262611	3	0,014830756	0,00144785782
2	1	0	1	0	2543,10	4,11878538	4,11925602	0,37155043217353434	3	0,0171153955	0,0015305113
2	1	0	1	0	2549,35	4,18129015	4,18205929	0,38176780473440838	3	0,0194685459	0,0015965756
2	0	0	0	1	2555,55	4,15668821	4,15705824	0,18677483196370371	3	0,0213118102	0,000776433852
2	0	0	0	1	2561,80	4,09418344	4,09469604	0,096343154339895603	3	0,0221489184	0,000394495932
2	0	0	1	1	2568,06	4,0316782	4,03217411	0,055124688062043738	3	0,0226071849	0,000222272341
2	0	0	1	1	2574,35	3,9687736	3,96920872	0,031296269085335782	3	0,0228713676	0,00012422142
2	0	0	1	1	2580,60	3,90626884	3,90693641	0,016263425156163706	3	0,023015162	6,35401666E-005
2	0	0	0	1	2586,85	3,84376454	3,8442831	0,0064138447584506381	3	0,0230824649	2,46566342E-005
2	0	0	0	1	2593,14	3,78085971	3,78120875	-0,00049474284545188672	3	0,0230987184	1,87072601E-006
2	0	0	1	1	2599,39	3,7183547	3,71891618	-0,0054749270238971802	3	0,0230788887	2,03607942E-005
2	0	0	1	1	2605,68	3,65544987	3,65592194	-0,0097918479004874829	3	0,0230295006	3,57982317E-005
2	0	0	1	1	2611,93	3,5929451	3,59365964	-0,01372468685440259	3	0,0229540057	4,9321854E-005
2	0	0	0	1	2618,18	3,53044033	3,5310967	-0,016607871022036618	3	0,0228565373	5,86440001E-005
2	0	0	0	1	2624,43	3,46793556	3,46829295	-0,019072565793370243	3	0,0227428209	6,6149245E-005
2	0	0	1	1	2630,68	3,40543079	3,40612078	-0,020895473746350022	3	0,0226163827	7,11725079E-005
2	0	0	1	1	2636,93	3,34292603	3,34338713	-0,02257959036311752	3	0,0224789102	7,54923094E-005
2	0	0	1	1	2643,18	3,28042126	3,28068376	-0,024195660463495526	3	0,0223310702	7,93783111E-005
2	0	0	0	1	2649,43	3,21791649	3,21831131	-0,025651500114084512	3	0,0221734829	8,25545139E-005
2	0	0	0	1	2655,68	3,15541172	3,15585876	-0,026937209603299094	3	0,0220071152	8,50100259E-005
2	0	0	1	1	2661,93	3,09290695	3,09349632	-0,028010961766898102	3	0,0218331888	8,66518094E-005
2	0	0	1	1	2668,18	3,03040242	3,03081274	-0,028740089367299085	3	0,0216532741	8,71058292E-005
2	0	0	1	1	2674,43	2,96789742	2,96819949	-0,029501824397205722	3	0,0214688461	8,75672995E-005
2	0	0	0	1	2680,68	2,90539289	2,90579677	-0,029972761248548864	3	0,0212811437	8,70947551E-005
2	0	0	0	1	2686,93	2,84288788	2,84336376	-0,030343760319131885	3	0,0210910793	8,6278349E-005
2	0	0	0	1	2693,19	2,78038335	2,78081131	-0,030511901511955373	3	0,0208996627	8,48478376E-005
2	0	0	1	1	2699,44	2,71787834	2,71810746	-0,030623964519084749	3	0,0207075253	8,32392252E-005
2	0	0	1	1	2705,69	2,65537357	2,6556747	-0,030754401823893773	3	0,0205147639	8,16736865E-005
2	0	0	0	1	2711,94	2,5928688	2,59336233	-0,031059911930545606	3	0,0203205012	8,0549602E-005
2	0	0	0	1	2718,19	2,53036404	2,53072882	-0,031812316301511603	3	0,0201226976	8,05083473E-005
2	0	0	1	1	2724,44	2,46785855	2,46841574	-0,032828872221423168	3	0,0199188702	8,10353013E-005
2	0	0	1	1	2730,69	2,40535474	2,4055829	-0,034460228819322534	3	0,0197067317	8,28969351E-005
2	0	0	1	1	2736,94	2,34284973	2,3433404	-0,036057550751138394	3	0,019484954	8,44951137E-005
2	0	0	0	1	2743,19	2,28034496	2,28090763	-0,037820144896007437	3	0,0192525089	8,62642555E-005
2	0	0	0	1	2749,44	2,21784019	2,21829438	-0,039648764388403034	3	0,0190086793	8,79526342E-005
2	0	0	0	1	2755,69	2,15533543	2,15572143	-0,041668807185487821	3	0,0187527668	8,98263388E-005
2	0	0	1	1	2760,25	2,10963273	2,11037087	-0,043754194370087456	3	0,0185577311	9,23375774E-005