File: Experimentelles/Rohdaten/Batterietests/AlteZelle/Studenten_Batterietests/LLTO_LP30_Li CV/ECLab-Export/LLTO_LP30_Li_02_CV_C01_loop5.mpt
EC-Lab ASCII FILE
Nb header lines : 3
mode	ox/red	error	control changes	counter inc.	time/s	control/V	Ewe/V	<I>/mA	cycle number	(Q-Qo)/C	P/W
2	0	0	1	0	4080,59	2,11093283	2,11141348	-0,048592485487461088	6	0	0,000102598831
2	0	0	0	0	4086,67	2,05012751	2,05069423	-0,04530126280345337	6	-0,000269822864	9,28990412E-005
2	0	0	0	0	4092,77	1,98912275	1,98950469	-0,047741446789586778	6	-0,000555025239	9,4981835E-005
2	0	0	0	0	4098,87	1,92811835	1,92870605	-0,050302769775347117	6	-0,000855857274	9,70192559E-005
2	0	0	1	0	4104,97	1,86711371	1,86768675	-0,05333107915551705	6	-0,0011735938	9,96057497E-005
2	0	0	1	0	4111,07	1,80610895	1,80639672	-0,057145536896617613	6	-0,00151163689	0,00010322751
2	0	0	1	0	4117,17	1,74510431	1,74557781	-0,062508066223623923	6	-0,00187688076	0,000109112691
2	0	0	0	0	4123,27	1,68409979	1,68440819	-0,070026822679210701	6	-0,00228148908	0,00011795375
2	0	0	0	0	4129,37	1,62309515	1,62354946	-0,078780023458724365	6	-0,00273621641	0,000127903259
2	0	0	0	0	4135,47	1,5620904	1,5623095	-0,095597574855977421	6	-0,00326262834	0,000149353
2	0	0	1	0	4141,61	1,50068569	1,50115979	-0,14675118141652387	6	-0,0039787814	0,000220296977
2	0	0	1	0	4147,71	1,43968117	1,44028091	-0,26759315235540272	6	-0,00520957261	0,000385409308
2	0	0	1	0	4153,81	1,3786763	1,37895083	-0,4365952913649383	6	-0,00734782359	0,000602043467
2	0	0	0	0	4159,91	1,31767178	1,31809175	-0,61178893347581338	6	-0,010551258	0,000806393975
2	0	0	0	0	4166,01	1,25666702	1,25699234	-0,77474092521394061	6	-0,0147857592	0,000973843387
2	0	0	0	0	4172,12	1,19566226	1,19594288	-0,95353761687875149	6	-0,0200617258	0,00114037655
2	0	0	1	0	4178,26	1,13425756	1,13465297	-1,0895567958553584	6	-0,0263690948	0,0012362689
2	0	0	1	0	4184,36	1,07325304	1,07390416	-1,1655035363510216	6	-0,0332762711	0,0012516391
2	0	0	1	0	4190,46	1,0122484	1,01265442	-1,1913385493680826	6	-0,0404922515	0,00120641431
2	0	0	0	0	4196,56	0,951243818	0,951785445	-1,1609045689304658	6	-0,0476997532	0,00110493205
2	1	0	1	0	4202,61	0,90934056	0,909752667	-0,91483042916904013	6	-0,0544264875	0,000832269434
2	1	0	1	0	4208,75	0,970745265	0,97126317	-0,21111242403276291	6	-0,0575764403	0,000205045726
2	1	0	1	0	4214,93	1,03254998	1,03298426	0,12284637595682078	6	-0,0577336028	0,000126898376
2	1	0	0	0	4221,03	1,0935545	1,09417391	0,31409340817481235	6	-0,0563594699	0,000343672815
2	1	0	0	0	4227,13	1,15455925	1,15502274	0,45941459216798285	6	-0,0539851412	0,000530634308
2	1	0	0	0	4233,23	1,21556389	1,21592176	0,59130204034348429	6	-0,0507732853	0,000718977011
2	1	0	1	0	4239,33	1,27656865	1,27711165	0,71284861924747571	6	-0,0467848182	0,000910387258
2	1	0	1	0	4245,43	1,33757329	1,33821106	0,81468481632570368	6	-0,0421123281	0,00109022018
2	1	0	1	0	4251,53	1,39857793	1,39892972	0,89316689036786381	6	-0,0368901864	0,00124947773
2	1	0	0	0	4257,63	1,45958257	1,45999908	0,98635761874417318	6	-0,03120666	0,00144008116
2	1	0	0	0	4263,76	1,52088726	1,52131915	1,1274081741770115	6	-0,0246768184	0,00171514763
2	1	0	0	0	4269,86	1,58189178	1,5822984	1,0709724640473723	6	-0,0178102348	0,001694598
2	1	0	1	0	4275,96	1,64289653	1,64347804	0,65898684582983514	6	-0,012372179	0,00108303037
2	1	0	1	0	4282,10	1,70430124	1,70484817	0,10215541561289354	6	-0,0102175074	0,000174159475
2	1	0	1	0	4288,20	1,76530588	1,76587749	0,054253725994688698	6	-0,00979542173	9,58054297E-005
2	1	0	0	0	4294,35	1,82671058	1,82728779	0,044801696116337555	6	-0,00949353818	8,18655899E-005
2	1	0	0	0	4300,45	1,88771522	1,88824701	0,040631723095430035	6	-0,00923295785	7,6722732E-005
2	1	0	0	0	4306,55	1,94871974	1,94924641	0,038722793979104608	6	-0,00899055786	7,54802677E-005
2	1	0	1	0	4312,65	2,00972462	2,01017523	0,037875312555115501	6	-0,00875609368	7,61360134E-005
2	1	0	1	0	4318,75	2,07072926	2,07115459	0,0376192223726928	6	-0,00852452684	7,79152251E-005
2	1	0	0	0	4324,85	2,13173461	2,13218403	0,037683349583265523	6	-0,00829366036	8,03478397E-005
2	1	0	0	0	4330,95	2,19273829	2,19325328	0,038082294767567194	6	-0,008061097	8,35241153E-005
2	1	0	0	0	4337,05	2,25374317	2,25431275	0,038710266322595942	6	-0,00782504864	8,72650489E-005
2	1	0	0	0	4343,15	2,31474781	2,31529236	0,03980594985165031	6	-0,00758364284	9,21624087E-005
2	1	0	1	0	4349,25	2,37575245	2,3761611	0,04111617905437015	6	-0,00733513711	9,7698663E-005
2	1	0	1	0	4355,35	2,43675709	2,4373107	0,042796894820639898	6	-0,0070785	0,000104309329
2	1	0	1	0	4361,45	2,49776053	2,49819946	0,044749702105005062	6	-0,00681024045	0,000111793684
2	1	0	0	0	4367,55	2,5587666	2,5591085	0,046512604467958739	6	-0,0065301382	0,000119030803
2	1	0	0	0	4373,65	2,61977124	2,62003779	0,048838508819850746	6	-0,0062373816	0,000127958745
2	1	0	1	0	4379,75	2,6807766	2,6811378	0,051237867364267162	6	-0,00593045494	0,000137375784
2	1	0	1	0	4385,85	2,74178052	2,74218678	0,053872500119420294	6	-0,00560777681	0,000147728453
2	1	0	1	0	4391,95	2,80278516	2,80311584	0,056523455054654278	6	-0,00526873395	0,000158441791
2	1	0	1	0	4398,05	2,86378956	2,86420417	0,059531747260247795	6	-0,00491292728	0,000170511077
2	1	0	0	0	4404,15	2,92479444	2,92538476	0,062480518245138227	6	-0,00453977939	0,00018277955
2	1	0	0	0	4410,25	2,98579931	2,98619366	0,065390487550758042	6	-0,00414897315	0,000195268658
2	1	0	1	0	4416,35	3,04680347	3,04725218	0,068675589822607014	6	-0,00373879331	0,000209271835
2	1	0	1	0	4422,46	3,10780835	3,10840273	0,072515606220501069	6	-0,00330664427	0,000225407712
2	1	0	1	0	4428,56	3,16881299	3,16931152	0,076485714312487411	6	-0,00285091624	0,000242407055
2	1	0	0	0	4434,66	3,22981834	3,23039174	0,081293640427878566	6	-0,00236833841	0,000262610294
2	1	0	0	0	4440,76	3,29082227	3,29119992	0,087537965679075571	6	-0,00185216533	0,000288104959
2	1	0	0	0	4446,86	3,35182691	3,35234952	0,095807588950265088	6	-0,00129175477	0,000321180531
2	1	0	1	0	4453,00	3,41323161	3,41372967	0,10667036757028336	6	-0,000669379602	0,000364143809
2	1	0	1	0	4459,10	3,47423649	3,47465897	0,11921278600736197	6	2,0604748E-005	0,000414223789
2	1	0	1	0	4465,20	3,53524113	3,53559804	0,13395198939057674	6	0,00079340121	0,000473600405
2	1	0	0	0	4471,30	3,59624529	3,59664798	0,15169334476998813	6	0,00166592759	0,000545587565
2	1	0	0	0	4477,40	3,6572504	3,65777707	0,16937129478901648	6	0,00264998665	0,000619522412
2	1	0	0	0	4483,50	3,71825504	3,71867633	0,1827500921984513	6	0,00372729241	0,000679588469
2	1	0	1	0	4489,60	3,77925992	3,77968574	0,19475731121209584	6	0,00487972051	0,000736121438
2	1	0	1	0	4495,70	3,84026456	3,84076476	0,20832788253513491	6	0,00610929215	0,000800138398
2	1	0	1	0	4501,80	3,9012692	3,90200448	0,22499630530364768	6	0,00743154623	0,000877936604
2	1	0	0	0	4507,90	3,96227384	3,96295404	0,24380585302909165	6	0,00886220858	0,000966191408
2	1	0	0	0	4514,00	4,02327824	4,02393341	0,26201025218081987	6	0,0104080029	0,00105431175
2	1	0	0	0	4520,10	4,08428288	4,08476162	0,27673805140269315	6	0,0120567549	0,00113040896
2	1	0	1	0	4526,20	4,14528799	4,14577103	0,28509199285569386	6	0,0137734991	0,00118192611
2	0	0	1	1	4532,25	4,19419146	4,19460011	0,24133605531639501	6	0,0155171752	0,00101230829
2	0	0	0	1	4538,35	4,13318682	4,13384199	0,090862260044862758	6	0,0164109766	0,000375610223
2	0	0	0	1	4544,49	4,07178211	4,07233143	0,044594716106075808	6	0,016805904	0,000181604468
2	0	0	1	1	4550,60	4,010777	4,01141262	0,021529166107976352	6	0,0169997476	8,63623718E-005
2	0	0	1	1	4556,70	3,94977283	3,95028281	0,007544491735946679	6	0,0170837175	2,98028754E-005
2	0	0	1	1	4562,84	3,88836813	3,88890266	-0,001662418756798928	6	0,0170983803	6,46498484E-006
2	0	0	0	1	4568,94	3,82736349	3,82780313	-0,0078224369475113626	6	0,0170672443	2,99427484E-005
2	0	0	0	1	4575,08	3,76595879	3,76636267	-0,011956282707008853	6	0,0170051083	4,50316984E-005
2	0	0	0	1	4581,18	3,70495415	3,70541358	-0,015051584132985795	6	0,0169214625	5,57723433E-005
2	0	0	1	1	4587,28	3,64394927	3,64444423	-0,017646165943006138	6	0,0168200172	6,43104649E-005
2	0	0	1	1	4593,38	3,58294463	3,58347511	-0,020013631738644733	6	0,0167032182	7,17183502E-005
2	0	0	1	1	4599,48	3,52193999	3,52237582	-0,021684821210025517	6	0,0165743288	7,63820935E-005
2	0	0	0	1	4605,58	3,46093535	3,46153712	-0,022966498315023786	6	0,0164363366	7,9499383E-005
2	0	0	0	1	4611,68	3,39993072	3,40023708	-0,024073599580636541	6	0,0162907932	8,18559492E-005
2	0	0	0	1	4617,78	3,33892584	3,33916759	-0,02522640591875336	6	0,0161382351	8,42351947E-005
2	0	0	1	1	4623,88	3,2779212	3,27832842	-0,026527584608023402	6	0,0159787014	8,6966138E-005
2	0	0	1	1	4629,98	3,21691656	3,2171886	-0,027439561507587085	6	0,015812492	8,82782479E-005
2	0	0	1	1	4636,08	3,15591192	3,15637016	-0,028387677564751357	6	0,0156402867	8,9602021E-005
2	0	0	0	1	4642,18	3,09490752	3,09517026	-0,029005823453189792	6	0,0154629471	8,9777961E-005
2	0	0	0	1	4648,28	3,03390265	3,03420115	-0,029678878946773043	6	0,0152816512	9,00516898E-005
2	0	0	0	1	4654,38	2,97289824	2,97317171	-0,03003612325604384	6	0,0150976442	8,93025499E-005
2	0	0	1	1	4660,48	2,91189361	2,91238308	-0,030245923534190925	6	0,0149117801	8,80877124E-005
2	0	0	1	1	4666,58	2,85088897	2,85146403	-0,030390980740776397	6	0,0147249326	8,6658787E-005
2	0	0	1	1	4672,68	2,78988409	2,79027438	-0,030593143843968154	6	0,0145375608	8,53632664E-005
2	0	0	0	1	4678,79	2,72887945	2,72924495	-0,030562921601813344	6	0,014350065	8,34137027E-005
2	0	0	0	1	4684,89	2,66787481	2,66823578	-0,030657556946001472	6	0,0141621912	8,18015906E-005
2	0	0	0	1	4690,99	2,60687041	2,60741687	-0,030962941168885037	6	0,0139728487	8,07332981E-005
2	0	0	1	1	4697,09	2,54586554	2,54653788	-0,031716552689128205	6	0,0137801412	8,07674005E-005
2	0	0	1	1	4703,19	2,48486066	2,48519778	-0,0328155481547584	6	0,013581845	8,15531239E-005
2	0	0	1	1	4709,29	2,42385602	2,42431879	-0,034169468766776928	6	0,0133758858	8,28376869E-005
2	0	0	0	1	4715,39	2,36285138	2,36320901	-0,035753528752441978	6	0,0131609915	8,44930619E-005
2	0	0	0	1	4721,49	2,30184698	2,30224991	-0,037274296172351341	6	0,0129362103	8,58147469E-005
2	0	0	0	1	4727,59	2,2408421	2,24123073	-0,039239626727067014	6	0,0127009833	8,79450599E-005
2	0	0	1	1	4733,69	2,17983747	2,18042207	-0,041063391312491149	6	0,0124546764	8,95355261E-005
2	0	0	1	1	4739,79	2,11883283	2,11904168	-0,043019310396630426	6	0,0121965939	9,1159709E-005
2	0	0	0	1	4740,54	2,11123276	2,1118145	-0,044014128049214675	6	0,0121638672	9,29496746E-005