File: Experimentelles/Rohdaten/Batterietests/AlteZelle/Studenten_Batterietests/LLTO_LP30_Li CV/ECLab-Export/LLTO_LP30_Li_02_CV_C01_loop10.mpt
EC-Lab ASCII FILE
Nb header lines : 3
mode	ox/red	error	control changes	counter inc.	time/s	control/V	Ewe/V	<I>/mA	cycle number	(Q-Qo)/C	P/W
2	0	0	1	0	7381,06	2,11283278	2,1135788	-0,049981214106082918	11	0	0,000105639236
2	0	0	0	0	7387,19	2,05152774	2,05189753	-0,04537370159717591	11	-0,000273268321	9,31021859E-005
2	0	0	0	0	7393,34	1,99002302	1,99032676	-0,047805002560683872	11	-0,000561243738	9,5147574E-005
2	0	0	0	0	7399,49	1,92851841	1,92909706	-0,050262408563867213	11	-0,000864378118	9,69610628E-005
2	0	0	1	0	7405,64	1,86701369	1,86754632	-0,05311227828497056	11	-0,00118388701	9,91896377E-005
2	0	0	1	0	7411,79	1,80550897	1,80588543	-0,05689502049547929	11	-0,00152328424	0,000102745886
2	0	0	1	0	7417,94	1,74400425	1,74448526	-0,062218627368565645	11	-0,00189000042	0,000108539476
2	0	0	0	0	7424,09	1,68249953	1,68306506	-0,069831219851039578	11	-0,00229660049	0,000117530486
2	0	0	0	0	7430,24	1,62099481	1,62162459	-0,078693465543134835	11	-0,00275344797	0,00012761126
2	0	0	1	0	7436,40	1,5594902	1,55979335	-0,096914388452811763	11	-0,00328666298	0,000151166416
2	0	0	1	0	7442,59	1,49758554	1,49805224	-0,15524037446205808	11	-0,00403556228	0,000232558188
2	0	0	1	0	7448,74	1,43608069	1,43661189	-0,28585196333006026	11	-0,00535888597	0,000410658336
2	0	0	0	0	7454,89	1,37457609	1,37496102	-0,4593446743674576	11	-0,00764337415	0,000631581002
2	0	0	0	0	7461,04	1,31307125	1,31361091	-0,63478889300798618	11	-0,0110163158	0,000833865604
2	0	0	0	0	7467,19	1,25156665	1,25202012	-0,79957004201909146	11	-0,015428111	0,00100107782
2	0	0	1	0	7473,34	1,19006205	1,1905998	-0,97815434262156493	11	-0,0209099632	0,00116459036
2	0	0	1	0	7479,53	1,12815714	1,12863815	-1,1040341447417923	11	-0,0273900572	0,00124605501
2	0	0	1	0	7485,68	1,06665254	1,06710768	-1,1694655657435451	11	-0,0344087258	0,00124794571
2	0	0	0	0	7491,83	1,00514781	1,00556707	-1,1847053760041826	11	-0,041678153	0,00119130069
2	0	0	0	0	7497,98	0,943643212	0,944206953	-1,1421351190656442	11	-0,048867017	0,00107841194
2	1	0	1	0	7504,07	0,917341173	0,917802334	-0,77505568601191219	11	-0,0553324223	0,000711347908
2	1	0	1	0	7510,26	0,979245901	0,979683816	-0,14366335216133619	11	-0,0579108335	0,000140744654
2	1	0	0	0	7516,49	1,04155064	1,0421766	0,16023119958117581	11	-0,0577547997	0,000166989208
2	1	0	0	0	7522,64	1,10305536	1,10347664	0,33936000692968627	11	-0,0561825559	0,000374475843
2	1	0	0	0	7528,79	1,16456008	1,16502726	0,48078642164667507	11	-0,0536481105	0,000560129294
2	1	0	1	0	7534,94	1,22606468	1,226578	0,61155222790936486	11	-0,0502834693	0,00075011648
2	1	0	1	0	7541,09	1,28756928	1,28816867	0,73131127686550106	11	-0,046143692	0,000942052284
2	1	0	1	0	7547,24	1,34907401	1,34953868	0,83038675660888192	11	-0,0413272046	0,00112063903
2	1	0	0	0	7553,39	1,41057873	1,41102934	0,90622775753338842	11	-0,0359732471	0,00127871393
2	1	0	0	0	7559,57	1,47238362	1,47269011	1,015244846232235	11	-0,0301013552	0,00149514107
2	1	0	1	0	7565,73	1,53388977	1,53441143	1,1421722416824806	11	-0,0233959258	0,00175256212
2	1	0	1	0	7571,88	1,59539282	1,59601188	1,0290632176523395	11	-0,0165329613	0,00164239714
2	1	0	1	0	7578,03	1,65689754	1,65709126	0,56194310542195859	11	-0,0115006268	0,000931191025
2	1	0	0	0	7584,22	1,71880233	1,71915329	0,083489823193910298	11	-0,00988685526	0,000143531797
2	1	0	0	0	7590,37	1,78030705	1,78092432	0,053963370679411981	11	-0,00948889554	9,61046826E-005
2	1	0	0	0	7596,56	1,84221172	1,84273565	0,04551452668965783	11	-0,0091821719	8,3871244E-005
2	1	0	1	0	7602,71	1,90371644	1,90426624	0,041886985922853062	11	-0,00891283713	7,97639732E-005
2	1	0	1	0	7608,86	1,96522117	1,96608746	0,039967779448488864	11	-0,00866045896	7,85801531E-005
2	1	0	1	0	7615,01	2,02672601	2,02737737	0,039149117035170291	11	-0,00841587503	7,9370031E-005
2	1	0	0	0	7621,16	2,08823061	2,0888176	0,038876332197105651	11	-0,00817454979	8,12055659E-005
2	1	0	0	0	7627,31	2,14973521	2,15009785	0,038834139219640352	11	-0,00793378521	8,34972016E-005
2	1	0	0	0	7633,46	2,21124005	2,21199894	0,039572198768534464	11	-0,00769108487	8,75336627E-005
2	1	0	1	0	7639,61	2,27274466	2,27317882	0,040210024046245965	11	-0,00744453492	9,14045741E-005
2	1	0	1	0	7645,76	2,3342495	2,3346796	0,041361617807221254	11	-0,00719234627	9,65661238E-005
2	1	0	0	0	7651,91	2,39575434	2,39620924	0,042363833718559539	11	-0,00693340646	0,000101512611
2	1	0	0	0	7658,06	2,4572587	2,45766044	0,043967780172048749	11	-0,00666614249	0,000108057873
2	1	0	0	0	7664,21	2,51876354	2,51935124	0,045944895925155469	11	-0,00638769055	0,000115751332
2	1	0	1	0	7670,36	2,58026838	2,58063126	0,047662110027546669	11	-0,00609839614	0,000122998332
2	1	0	1	0	7676,51	2,64177299	2,64199138	0,0498643475778712	11	-0,00579700479	0,000131741181
2	1	0	1	0	7682,66	2,70327759	2,7035923	0,05208756922123303	11	-0,00548203895	0,000140823555
2	1	0	0	0	7688,81	2,76478219	2,76517296	0,05461511173052713	11	-0,00515222177	0,000151020227
2	1	0	0	0	7694,97	2,82628703	2,82686377	0,057125882381418022	11	-0,00480722357	0,000161487085
2	1	0	0	0	7701,12	2,88779187	2,88839436	0,059655149894145446	11	-0,00444677286	0,000172307598
2	1	0	1	0	7707,27	2,94929647	2,94966435	0,062225222412962368	11	-0,00407069456	0,000183543525
2	1	0	1	0	7713,42	3,01080108	3,01132536	0,064809692344472986	11	-0,0036785088	0,000195163069
2	1	0	1	0	7719,57	3,07230592	3,07287574	0,06785018158067657	11	-0,00326880743	0,00020849517
2	1	0	0	0	7725,72	3,13381052	3,13421583	0,07107688651497801	11	-0,00283987774	0,000222770308
2	1	0	0	0	7731,87	3,19531512	3,1957767	0,07461611193139095	11	-0,00239070831	0,000238456429
2	1	0	0	0	7738,02	3,25681973	3,257267	0,078729369522382848	11	-0,00191814732	0,000256442581
2	1	0	1	0	7744,17	3,31832457	3,31893778	0,084246554392545306	11	-0,00141622603	0,000279609085
2	1	0	1	0	7750,32	3,37982917	3,38026786	0,090932033141143514	11	-0,000876702194	0,000307374634
2	1	0	0	0	7756,51	3,44173455	3,4421289	0,099242184224909606	11	-0,000286248775	0,000341604376
2	1	0	0	0	7762,66	3,50323868	3,50369024	0,10892184769424312	11	0,000355896889	0,000381628401
2	1	0	0	0	7768,81	3,56474328	3,56533074	0,12035979082186987	11	0,00106144301	0,000429122476
2	1	0	1	0	7774,96	3,62624812	3,62659097	0,1328033976800116	11	0,0018415919	0,000481623603
2	1	0	1	0	7781,11	3,68775272	3,68829179	0,14378900616429768	11	0,00269512995	0,000530335819
2	1	0	1	0	7787,26	3,74925756	3,74973226	0,15355290092217366	11	0,00361198699	0,000575782266
2	1	0	0	0	7793,41	3,81076217	3,81130266	0,16426987802454573	11	0,00459139748	0,000626082241
2	1	0	0	0	7799,56	3,87226701	3,87283325	0,17729435667085158	11	0,00564212911	0,00068663148
2	1	0	0	0	7805,71	3,93377161	3,93387246	0,19234344262319293	11	0,00677954452	0,000756654597
2	1	0	1	0	7811,86	3,99527621	3,99584413	0,20825078051226774	11	0,0080142403	0,000832137652
2	1	0	1	0	7818,01	4,05678082	4,05732489	0,22156107906873011	11	0,00934009161	0,000898945262
2	1	0	1	0	7824,17	4,11828518	4,11877537	0,23087685149169389	11	0,0107358228	0,000950929883
2	1	0	0	0	7830,32	4,17979002	4,18049574	0,24221184826455962	11	0,0121879177	0,00101256557
2	0	0	1	1	7836,42	4,15918875	4,15964508	0,094348679025036518	11	0,0132759977	0,000392457005
2	0	0	1	1	7842,61	4,09728432	4,09781408	0,03759331372566521	11	0,0136507833	0,000154050416
2	0	0	0	1	7848,76	4,035779	4,03633308	0,014694242442298362	11	0,0138021298	5,93108562E-005
2	0	0	0	1	7854,95	3,97387433	3,97425127	0,0011178772765560973	11	0,0138467932	4,44272519E-006
2	0	0	0	1	7861,10	3,91236973	3,91283131	-0,007007548845043232	11	0,0138266291	2,74193571E-005
2	0	0	1	1	7867,29	3,85046506	3,85094976	-0,012196654402941939	11	0,0137643488	4,69687038E-005
2	0	0	1	1	7873,44	3,78896022	3,78945947	-0,015946349774215718	11	0,0136748534	6,04280467E-005
2	0	0	1	1	7879,59	3,72745633	3,72799969	-0,018555996495997485	11	0,0135665108	6,91767491E-005
2	0	0	0	1	7885,74	3,66595078	3,66642833	-0,020693330399808445	11	0,0134438071	7,58706155E-005
2	0	0	0	1	7891,89	3,60444617	3,60482764	-0,022459648685374643	11	0,0133092729	8,09631601E-005
2	0	0	1	1	7898,04	3,54294086	3,54339623	-0,02357367751001649	11	0,0131654516	8,3530882E-005
2	0	0	1	1	7904,19	3,48143673	3,48200679	-0,024711912944136742	11	0,0130147925	8,60470464E-005
2	0	0	1	1	7910,34	3,41993213	3,42058682	-0,025556067480162371	11	0,012858619	8,74167454E-005
2	0	0	0	1	7916,49	3,35842729	3,35904598	-0,026372816966613645	11	0,0126971947	8,85875052E-005
2	0	0	0	1	7922,64	3,29692268	3,29748535	-0,02731287836407624	11	0,012530325	9,00638188E-005
2	0	0	0	1	7928,79	3,23541784	3,23597479	-0,027969399156669738	11	0,0123581449	9,05082707E-005
2	0	0	1	1	7934,94	3,17391324	3,17424369	-0,029001470684306714	11	0,012181093	9,20577368E-005
2	0	0	1	1	7941,09	3,11240888	3,1126833	-0,029457901682083789	11	0,0119999442	9,16931167E-005
2	0	0	1	1	7947,25	3,05090427	3,0514133	-0,029985825017017075	11	0,0118155228	9,14991469E-005
2	0	0	0	1	7953,40	2,98939943	2,99005318	-0,030152055386376218	11	0,0116289547	9,01562526E-005
2	0	0	0	1	7959,55	2,92789483	2,92849255	-0,030175139613371981	11	0,011441201	8,83676694E-005
2	0	0	0	1	7965,70	2,86638999	2,86678147	-0,030457053750675642	11	0,0112529267	8,73137178E-005
2	0	0	1	1	7971,85	2,80488539	2,80524087	-0,030317949926636	11	0,0110645397	8,50491488E-005
2	0	0	1	1	7978,00	2,74338055	2,74398088	-0,030453503859462214	11	0,0108761638	8,35638348E-005
2	0	0	0	1	7984,15	2,68187475	2,68218684	-0,030452094393253805	11	0,0106873633	8,16782049E-005
2	0	0	0	1	7990,30	2,6203711	2,62078977	-0,030950512785542176	11	0,0104969749	8,11147838E-005
2	0	0	0	1	7996,45	2,5588665	2,55929899	-0,03169923629805753	11	0,0103030689	8,11278223E-005
2	0	0	1	1	8002,60	2,4973619	2,49779868	-0,032709241155923027	11	0,0101034828	8,17011023E-005
2	0	0	1	1	8008,75	2,43585706	2,4363482	-0,03418915352085607	11	0,00989622623	8,32966834E-005
2	0	0	1	1	8014,90	2,37435246	2,37496781	-0,035608489987983718	11	0,00967996195	8,45690156E-005
2	0	0	0	1	8021,05	2,31284761	2,31295609	-0,037342134475087162	11	0,00945381913	8,63707173E-005
2	0	0	0	1	8027,20	2,25134301	2,25189686	-0,039108116528950714	11	0,00921709742	8,80674415E-005
2	0	0	0	1	8033,35	2,18983841	2,19036627	-0,040991883492097357	11	0,00896932743	8,97872378E-005
2	0	0	1	1	8039,50	2,12833357	2,12870526	-0,042918539509022022	11	0,00870983861	9,13609183E-005
2	0	0	0	1	8041,01	2,11313295	2,11349869	-0,043907420088847514	11	0,00864423905	9,27982765E-005