File: Experimentelles/Rohdaten/Batterietests/AlteZelle/Studenten_Batterietests/LLTO_LP30_Li CV/ECLab-Export/LLTO_LP30_Li_05_GCPL_C01_loop6.mpt
EC-Lab ASCII FILE
Nb header lines : 3
mode	ox/red	error	control changes	Ns changes	counter inc.	Ns	time/s	control/V/mA	Ewe/V	dq/mA.h	<I>/mA	P/W	(Q-Qo)/mA.h	x	Capacity/mA.h
1	0	0	1	1	0	1	30278,98	-0,100000001	4,18823862	0	0	0	0	0	0
1	0	0	1	0	0	1	30338,98	-0,100000001	2,25904179	-0,00027773834548145533	-0,099985805583871411	0,000225872107	-0,0016650552180949325	6,2125448877672243E-005	0,0016650552180949325
1	0	0	1	0	0	1	30398,98	-0,100000001	1,4875046	-0,0002777382603461544	-0,099985774935162701	0,000148729305	-0,0033314855703700883	0,00012430220586049621	0,0033314855703700883
1	0	0	1	0	0	1	30458,98	-0,100000001	1,40575933	-0,00027773805609676573	-0,099985701405381888	0,000140555829	-0,0049979147732503846	0,00018647891995785254	0,0049979147732503846
1	0	0	1	0	0	1	30518,98	-0,100000001	1,35616982	-0,00027773817678292589	-0,099985744852400077	0,000135597656	-0,0066643445256122406	0,00024865565455710474	0,0066643445256122406
1	0	0	1	0	0	1	30578,98	-0,100000001	1,31792271	-0,00027773890367440054	-0,099986006533334118	0,000131773835	-0,0083307752945876083	0,00031083242708757376	0,0083307752945876083
1	0	0	1	0	0	1	30638,98	-0,100000001	1,30066097	-0,00027773794495852458	-0,099985661395614605	0,000130047454	-0,0099972048611593062	0,00037300915475474534	0,0099972048611593062
1	0	0	1	0	0	1	30698,98	-0,100000001	1,26632833	-0,00027773851721816589	-0,099985867409087962	0,000126614934	-0,011663635390391547	0,00043518591834007603	0,011663635390391547
1	0	0	1	0	0	1	30758,98	-0,100000001	1,2266109	-0,00027773849651465814	-0,099985859955825088	0,000122643745	-0,01333006380194485	0,00049736260291195834	0,01333006380194485
1	0	0	1	0	0	1	30818,98	-0,100000001	1,18469751	-0,00027773792094654506	-0,099985652751301862	0,000118452757	-0,014996493445588246	0,00055953933345477869	0,014996493445588246
1	0	0	1	0	0	1	30878,98	-0,100000001	1,13921344	-0,00027773789559553069	-0,099985643624936589	0,000113904993	-0,016662922406190979	0,00062171603851243341	0,016662922406190979
1	0	0	1	0	0	1	30938,98	-0,100000001	1,08702707	-0,00027773737790808083	-0,099985457257452365	0,000108686902	-0,018329348125113974	0,00068389262261865856	0,018329348125113974
1	0	0	1	0	0	1	30998,98	-0,100000001	1,02817655	-0,0002777380899923543	-0,099985713607793933	0,000102802966	-0,019995776081447565	0,00074606929020568128	0,019995776081447565
1	0	0	1	0	0	1	31058,98	-0,100000001	0,97755599	-0,00027773913162201645	-0,099986088594476838	9,77419986E-005	-0,021662207652394323	0,00080824609265878118	0,021662207652394323
1	0	0	1	0	0	1	31118,98	-0,100000001	0,951205015	-0,0002777394290541609	-0,099986195670050138	9,51073744E-005	-0,023328644322939395	0,00087042308538475085	0,023328644322939395
1	0	0	1	0	0	1	31178,98	-0,100000001	0,937590361	-0,00027773947655989066	-0,099986212772113062	9,37461082E-005	-0,024995081518194506	0,00093260009768835738	0,024995081518194506
1	0	0	1	0	0	1	31238,98	-0,100000001	0,927584589	-0,00027773952325681846	-0,099986229583007258	9,27456858E-005	-0,026661517671420518	0,00099477707111245734	0,026661517671420518
1	0	0	1	0	0	1	31298,98	-0,100000001	0,916395009	-0,00027773965286256538	-0,099986276241076723	9,16269273E-005	-0,028327956887145184	0,0010569541588024995	0,028327956887145184
1	0	0	1	0	0	1	31358,98	-0,100000001	0,903505921	-0,00027773981256783008	-0,099986333734972723	9,03382461E-005	-0,029994394914875603	0,001119131202166879	0,029994394914875603
1	0	0	1	0	0	1	31418,98	-0,100000001	0,889757574	-0,00027773988133793075	-0,099986358492209254	8,89636212E-005	-0,031660832863351712	0,0011813082425741738	0,031660832863351712
1	0	0	1	0	0	1	31478,98	-0,100000001	0,875398219	-0,00027773947472870349	-0,099986212112885683	8,75277547E-005	-0,03332726959900327	0,0012434852377293538	0,03332726959900327
1	0	0	1	0	0	1	31538,98	-0,100000001	0,860714257	-0,00027773955634277728	-0,099986241493952589	8,60595828E-005	-0,034993705797876915	0,0013056622128566282	0,034993705797876915
1	0	0	1	0	0	1	31598,98	-0,100000001	0,845514715	-0,00027773957574781443	-0,099986248479766042	8,45398463E-005	-0,036660142994019891	0,0013678392251933622	0,036660142994019891
1	0	0	1	0	0	1	31658,98	-0,100000001	0,830200553	-0,00027773996970926726	-0,099986390305890778	8,30087592E-005	-0,038326580411201312	0,0014300162457773379	0,038326580411201312
1	0	0	1	0	0	1	31718,98	-0,100000001	0,81448549	-0,00027773989246661466	-0,099986362498535514	8,14374434E-005	-0,039993020328697408	0,0014921933596514157	0,039993020328697408
1	0	0	1	0	0	1	31773,41	-0,100000001	0,800126076	-0,00012318895052621762	-0,099986523710276326	8,00018242E-005	-0,041504910064683366	0,0015486039984584211	0,041504910064683366
1	1	0	0	0	0	2	31823,42	0,100000001	0,852726161	0,00027780593528971082	0,10001013791513795	8,52812591E-005	-0,040115877410354477	0,0014967773225511437	0,0013890326543288926
1	1	0	0	0	0	2	31883,42	0,100000001	0,876193821	0,00027780656688618992	0,10001036528987322	8,76284612E-005	-0,038449040926586598	0,0014345854122562768	0,0030558691380967693
1	1	0	0	0	0	2	31943,42	0,100000001	0,897618294	0,00027780635780303018	0,1000102900199348	8,97710634E-005	-0,036782201711135782	0,0013723934000386467	0,0047227083535475872
1	1	0	0	0	0	2	32003,42	0,100000001	0,917877972	0,00027780620160284966	0,10001023378786914	9,1797192E-005	-0,03511536397949872	0,0013102014431841027	0,006389546085184649
1	1	0	0	0	0	2	32063,42	0,100000001	0,93699199	0,00027780631912085747	0,10001027609435245	9,37088262E-005	-0,033448523320919693	0,0012480093771214186	0,0080563867437636698
1	1	0	0	0	0	2	32123,42	0,100000001	0,955246747	0,00027780579162099293	0,10001008619439893	9,5534313E-005	-0,031781687392304102	0,0011858174875400298	0,0097232226723792653
1	1	0	0	0	0	2	32183,42	0,100000001	0,972183883	0,00027780660331828726	0,10001037840542842	9,72284761E-005	-0,030114849077759283	0,0011236255089364134	0,011390060986924088
1	1	0	0	0	0	2	32243,42	0,100000001	0,997847438	0,0002778067005020049	0,10001041339156717	9,97951356E-005	-0,028448008269986931	0,0010614334373071259	0,013056901794696435
1	1	0	0	0	0	2	32303,42	0,100000001	1,05751908	0,0002778061813546551	0,10001022649851901	0,000105762723	-0,026781170764182349	0,00099924148887869542	0,014723739300501014
1	1	0	0	0	0	2	32363,42	0,100000001	1,1128943	0,00027780645814827747	0,10001032614422426	0,00011130092	-0,025114332814095507	0,00093704952387349619	0,016390577250587859
1	1	0	0	0	0	2	32423,42	0,100000001	1,15979135	0,00027780603219610122	0,10001017280143894	0,00011599093	-0,023447494564080989	0,00087485754767759245	0,018057415500602381
1	1	0	0	0	0	2	32483,42	0,100000001	1,20286953	0,00027780607673691382	0,10001018883613168	0,000120299206	-0,02178065689483385	0,00081266559315090022	0,01972425316984952
1	1	0	0	0	0	2	32543,42	0,100000001	1,24592853	0,00027780645666312845	0,10001032560957059	0,000124605722	-0,020113819557044829	0,00075047365099135616	0,021391090507638541
1	1	0	0	0	0	2	32603,42	0,100000001	1,29011416	0,00027780635594949126	0,10001028935266077	0,000129024687	-0,01844698165206008	0,0006882816876689769	0,02305792841262329
1	1	0	0	0	0	2	32663,42	0,100000001	1,33573186	0,00027780611831736234	0,10001020380509333	0,000133586815	-0,016780144971274016	0,00062608977002309645	0,024724765093409354
1	1	0	0	0	0	2	32723,42	0,100000001	1,37392163	0,0002778062036091255	0,10001023451012845	0,000137406227	-0,015113306976835526	0,0005638978033630777	0,026391603087847843
1	1	0	0	0	0	2	32783,42	0,100000001	1,37298608	0,00027780620131351882	0,1000102322865832	0,000137312658	-0,013446469303016627	0,00050170584866580717	0,028058440761666746
1	1	0	0	0	0	2	32843,42	0,100000001	1,40080726	0,00027780601738434701	0,10001016607208146	0,00014009497	-0,011779633392172322	0,0004395139597474889	0,029725276672511046
1	1	0	0	0	0	2	32903,42	0,100000001	1,46074617	0,00027780611229108438	0,10001020023850688	0,000146089515	-0,010112796708475979	0,00037732204199302202	0,031392113356207392
1	1	0	0	0	0	2	32963,42	0,100000001	2,09987187	0,00027780631421216662	0,10001027293009634	0,000210008759	-0,0084459603168337062	0,00031513013513548518	0,033058949747849664
1	1	0	0	0	0	2	33023,42	0,100000001	2,96107769	0,00027780646133381459	0,1000103258938895	0,000296138343	-0,0067791204275912896	0,00025293809777778448	0,034725789637092083
1	1	0	0	0	0	2	33083,42	0,100000001	3,40375495	0,00027780675245780083	0,10001043069852437	0,000340411003	-0,0051122796990318611	0,00019074602910403754	0,036392630365651514
1	1	0	0	0	0	2	33143,42	0,100000001	3,64899087	0,00027780670409732397	0,10001041328875272	0,000364937092	-0,003445438911790832	0,00012855395824080117	0,038059471152892538
1	1	0	0	0	0	2	33203,42	0,100000001	3,85972214	0,00027780616681733062	0,10001021986795549	0,00038601167	-0,0017786009918933286	6,6361994362006938E-005	0,039726309072790042
1	1	0	0	0	0	2	33263,42	0,100000001	4,0329895	0,00027780645126228531	0,10001032226813898	0,000403340586	-0,00011176319200812205	4,1700349610328544E-006	0,041393146872675251
1	1	0	0	0	0	2	33323,42	0,100000001	4,18500423	0,00027780678478462829	0,10001044233618221	0,000418544136	0,0015550767106341645	-5,8022002896635059E-005	0,043059986775317542
1	1	0	0	0	0	2	33330,77	0,100000001	4,19981003	0,00020426546937144464	0,10001029381673267	0,00042002424	0,001759342180005609	-6,5643422196728154E-005	0,043264252244688986