File: Experimentelles/Rohdaten/Batterietests/AlteZelle/Studenten_Batterietests/LLTO_LP30_Li CV/ECLab-Export/LLTO_LP30_Li_02_CV_C01_loop7.mpt
EC-Lab ASCII FILE
Nb header lines : 3
mode	ox/red	error	control changes	counter inc.	time/s	control/V	Ewe/V	<I>/mA	cycle number	(Q-Qo)/C	P/W
2	0	0	1	0	5400,78	2,11163282	2,11205506	-0,051776442676782611	8	0	0,000109354696
2	0	0	0	0	5406,86	2,05082774	2,05138636	-0,045383006887277587	8	-0,000271005003	9,30980823E-005
2	0	0	0	0	5412,96	1,9898231	1,99010623	-0,047776762590122758	8	-0,000556153769	9,50808317E-005
2	0	0	0	0	5419,06	1,92881835	1,92942786	-0,050252486408377677	8	-0,000856458792	9,69585453E-005
2	0	0	1	0	5425,16	1,86781371	1,86826801	-0,053183502847484019	8	-0,00117319904	9,93610374E-005
2	0	0	1	0	5431,26	1,80680919	1,80713844	-0,05685179579692601	8	-0,00150974013	0,000102739068
2	0	0	1	0	5437,37	1,74580455	1,74630964	-0,062108521757181734	8	-0,00187308691	0,000108460707
2	0	0	0	0	5443,47	1,68479979	1,68531048	-0,069469271984417101	8	-0,00227537518	0,000117077296
2	0	0	0	0	5449,57	1,62379515	1,62452173	-0,078418648743536435	8	-0,00272724521	0,000127392792
2	0	0	0	0	5455,67	1,56279027	1,56312156	-0,095221086230594778	8	-0,00325062359	0,000148842126
2	0	0	1	0	5461,81	1,50138569	1,50160098	-0,14715173413666659	8	-0,00396608189	0,000220963193
2	0	0	1	0	5467,91	1,44038105	1,44091237	-0,26892712246626614	8	-0,0052021821	0,000387500419
2	0	0	1	0	5474,01	1,37937641	1,37987304	-0,43803508610775309	8	-0,00735004386	0,000604432833
2	0	0	0	0	5480,11	1,31837165	1,31883359	-0,61282887201135411	8	-0,0105625624	0,000808219309
2	0	0	0	0	5486,21	1,25736713	1,25787449	-0,77552044050146906	8	-0,0148035055	0,00097550737
2	0	0	0	0	5492,31	1,19636238	1,19675493	-0,95390175531307712	8	-0,0200832672	0,00114158657
2	0	0	1	0	5498,44	1,13505781	1,13552511	-1,0887355826174214	8	-0,0263786986	0,0012362866
2	0	0	1	0	5504,54	1,07405305	1,07442558	-1,1631408507625309	8	-0,0332755037	0,00124970824
2	0	0	1	0	5510,64	1,01304841	1,01346636	-1,1880302727222478	8	-0,0404747128	0,00120402873
2	0	0	0	0	5516,74	0,952043831	0,952587426	-1,1570642065877718	8	-0,0476610325	0,00110220478
2	1	0	1	0	5522,77	0,908340514	0,908790231	-0,92979265376925286	8	-0,0543640107	0,000844986469
2	1	0	1	0	5528,91	0,969745219	0,97006017	-0,21742876448358173	8	-0,0575737581	0,000210918981
2	1	0	1	0	5535,09	1,03154981	1,03208196	0,11920951597858176	8	-0,0577601455	0,000123033984
2	1	0	0	0	5541,19	1,09255445	1,09312129	0,31098324952957504	8	-0,0564064123	0,000339942402
2	1	0	0	0	5547,29	1,15355933	1,15408039	0,45590017285818886	8	-0,0540529452	0,00052614545
2	1	0	0	0	5553,39	1,21456385	1,21520007	0,58714918280020173	8	-0,0508650467	0,000713503745
2	1	0	1	0	5559,50	1,27556849	1,27607906	0,70862883391479654	8	-0,0469018854	0,000904266431
2	1	0	1	0	5565,60	1,33657324	1,33703816	0,81129297086348019	8	-0,0422518142	0,00108472968
2	1	0	1	0	5571,70	1,39757776	1,39819777	0,8906780481338487	8	-0,0370465517	0,00124534406
2	1	0	0	0	5577,80	1,45858252	1,45907676	0,97903230010221171	8	-0,0313842185	0,00142848329
2	1	0	0	0	5583,93	1,51988721	1,52045691	1,1254714305202178	8	-0,0248921495	0,00171123084
2	1	0	0	0	5590,03	1,58089173	1,58152628	1,0827675098553354	8	-0,0180012397	0,00171242526
2	1	0	1	0	5596,13	1,64189649	1,64225507	0,6854842895021047	8	-0,0124335494	0,00112574
2	1	0	1	0	5602,27	1,70330107	1,70364523	0,11135401153781798	8	-0,010121149	0,000189707731
2	1	0	1	0	5608,37	1,76430583	1,76500547	0,056035557684178003	8	-0,00967871211	9,89030668E-005
2	1	0	0	0	5614,51	1,82571054	1,82628536	0,045959332259371878	8	-0,00936861057	8,39348577E-005
2	1	0	0	0	5620,61	1,88671517	1,88716435	0,041470532470460288	8	-0,00910201482	7,82617135E-005
2	1	0	0	0	5626,71	1,94771969	1,94828379	0,039317080285400154	8	-0,00885472819	7,66008307E-005
2	1	0	1	0	5632,81	2,00872445	2,00927329	0,038314572506351283	8	-0,00861623138	7,69844482E-005
2	1	0	1	0	5638,91	2,06972933	2,07030249	0,038069614131624352	8	-0,00838125031	7,88156176E-005
2	1	0	1	0	5645,01	2,13073325	2,13106155	0,038161396630972096	8	-0,00814724714	8,13242877E-005
2	1	0	0	0	5651,11	2,19173837	2,19242144	0,038617742383697306	8	-0,00791172776	8,46663679E-005
2	1	0	0	0	5657,21	2,25274301	2,25324011	0,039302017772570195	8	-0,00767286727	8,85568807E-005
2	1	0	0	0	5663,31	2,31374764	2,31428957	0,04036935324741808	8	-0,00742880302	9,34263735E-005
2	1	0	1	0	5669,41	2,37475228	2,37517858	0,04148021622677328	8	-0,00717796106	9,85229199E-005
2	1	0	1	0	5675,51	2,43575716	2,4364686	0,042949526308802778	8	-0,00691934396	0,000104645173
2	1	0	1	0	5681,61	2,49676251	2,4973073	0,044894904474052864	8	-0,00664965343	0,000112116373
2	1	0	0	0	5687,71	2,55776644	2,55812621	0,046730715422502925	8	-0,00636860635	0,000119543067
2	1	0	0	0	5693,82	2,61877108	2,6190455	0,048841511093390413	8	-0,0060755671	0,000127918145
2	1	0	0	0	5699,92	2,67977524	2,68052459	0,051187053907433114	8	-0,00576901203	0,000137208161
2	1	0	1	0	5706,02	2,74078035	2,74128437	0,05374924370941392	8	-0,00544741331	0,000147341969
2	1	0	1	0	5712,12	2,80178499	2,80224371	0,056189281031644442	8	-0,00511014601	0,000157456059
2	1	0	1	0	5718,22	2,86278963	2,86343336	0,058973128073072755	8	-0,00475693215	0,000168865619
2	1	0	0	0	5724,32	2,92379427	2,92435241	0,061681927550428787	8	-0,00438732933	0,000180379691
2	1	0	0	0	5730,42	2,98479915	2,98513126	0,064419572202799373	8	-0,00400110334	0,000192300882
2	1	0	0	0	5736,52	3,0458045	3,04607201	0,067389736169018995	8	-0,0035968821	0,000205273987
2	1	0	1	0	5742,62	3,10680842	3,10716987	0,070992146696274624	8	-0,00317251333	0,000220584654
2	1	0	1	0	5748,72	3,16781282	3,16840911	0,074719918193295603	8	-0,00272666593	0,000236743275
2	1	0	1	0	5754,82	3,22881627	3,22950888	0,079086737879653146	8	-0,00225678133	0,000255411316
2	1	0	0	0	5760,92	3,28982234	3,29007721	0,084475442379092109	8	-0,00175725005	0,000277930725
2	1	0	0	0	5767,02	3,35082698	3,35136724	0,091682782222051622	8	-0,00121926749	0,000307262671
2	1	0	1	0	5773,16	3,41223145	3,41265678	0,10076590787962414	8	-0,000627916947	0,000343879452
2	1	0	1	0	5779,26	3,47323632	3,47382712	0,11143423663452272	8	2,07362355E-005	0,000387103268
2	1	0	1	0	5785,36	3,53424096	3,53466558	0,12388397578615685	8	0,000739292766	0,000437888433
2	1	0	0	0	5791,46	3,59524632	3,5958178	0,13865610793064442	8	0,00154127774	0,000498582085
2	1	0	0	0	5797,56	3,65625048	3,65657425	0,1534393692078695	8	0,00243585045	0,000561062421
2	1	0	0	0	5803,66	3,71725512	3,71777415	0,16513772316587443	8	0,00341016939	0,00061394478
2	1	0	0	0	5809,76	3,77825832	3,77871203	0,17612633121888381	8	0,00445240084	0,000665530679
2	1	0	1	0	5815,86	3,83926439	3,83977246	0,18856391058458621	8	0,00556589942	0,000724042533
2	1	0	1	0	5821,97	3,90026903	3,90086198	0,20423651905730278	8	0,00676521333	0,000796698499
2	1	0	0	0	5828,07	3,96127343	3,96175957	0,22185655649583014	8	0,00806647167	0,000878942315
2	1	0	0	0	5834,17	4,02227831	4,02279043	0,2388066137985625	8	0,00947509333	0,000960668956
2	1	0	0	0	5840,27	4,08328295	4,08393955	0,25194972691436579	8	0,0109766927	0,00102894742
2	1	0	1	0	5846,37	4,14428759	4,14479923	0,26002582092769354	8	0,0125400163	0,00107775477
2	0	0	1	1	5852,42	4,19519138	4,19569349	0,22320409313154666	8	0,0141370324	0,000936495955
2	0	0	0	1	5858,52	4,13418674	4,13466406	0,077855524548794854	8	0,0149318874	0,000321906438
2	0	0	0	1	5864,66	4,07278204	4,07320356	0,035918883736788474	8	0,0152616641	0,000146304927
2	0	0	0	1	5870,76	4,01177788	4,01235437	0,015424175433771501	8	0,0154109914	6,18872582E-005
2	0	0	1	1	5876,90	3,95037293	3,95087433	0,0027272168917988963	8	0,0154625867	1,07748911E-005
2	0	0	1	1	5883,00	3,8893683	3,89003515	-0,0053525501692395974	8	0,0154520338	2,08216079E-005
2	0	0	1	1	5889,14	3,82796431	3,82854486	-0,01062828566193788	8	0,0154006267	4,06908694E-005
2	0	0	0	1	5895,24	3,76695871	3,76734495	-0,014306904423089405	8	0,0153223192	5,38990425E-005
2	0	0	0	1	5901,34	3,70595407	3,70631576	-0,017023152191541184	8	0,0152247483	6,30931754E-005
2	0	0	1	1	5907,44	3,64494944	3,64535666	-0,019247450191566458	8	0,0151116122	7,01638201E-005
2	0	0	1	1	5913,54	3,5839448	3,584548	-0,021322173711572189	8	0,0149853704	7,6430355E-005
2	0	0	1	1	5919,64	3,52293992	3,52344847	-0,022803838675220899	8	0,0148488786	8,03481526E-005
2	0	0	0	1	5925,74	3,46193528	3,46239901	-0,023999209952307866	8	0,0147047201	8,30948411E-005
2	0	0	0	1	5931,84	3,40093064	3,40133929	-0,024923411188259194	8	0,0145540973	8,47729752E-005
2	0	0	0	1	5937,94	3,339926	3,3403101	-0,025987472074727318	8	0,014397325	8,68062125E-005
2	0	0	1	1	5944,05	3,27892137	3,27920055	-0,026989981561200685	8	0,0142343417	8,85055633E-005
2	0	0	1	1	5950,15	3,21791673	3,21864247	-0,027852289805499254	8	0,0140653988	8,96465644E-005
2	0	0	1	1	5956,25	3,15691185	3,1573925	-0,028594390498862253	8	0,0138911111	9,02837128E-005
2	0	0	0	1	5962,35	3,09590769	3,09637332	-0,029306459958509805	8	0,0137122478	9,07437425E-005
2	0	0	0	1	5968,45	3,03490281	3,03522372	-0,029903392006720819	8	0,0135299452	9,07634821E-005
2	0	0	0	1	5974,55	2,97389817	2,97428441	-0,03023180906893687	8	0,0133453198	8,99180013E-005
2	0	0	1	1	5980,65	2,91289353	2,91328526	-0,030332524727176237	8	0,013159248	8,83672983E-005
2	0	0	1	1	5986,75	2,8518889	2,85233617	-0,030235759933323853	8	0,0129725058	8,62425513E-005
2	0	0	1	1	5992,85	2,79088426	2,79129648	-0,030400586654044102	8	0,0127854934	8,48570489E-005
2	0	0	0	1	5998,95	2,72987962	2,73028755	-0,030364476474157216	8	0,0125984363	8,29037526E-005
2	0	0	0	1	6005,05	2,66887498	2,66935825	-0,030486014962662125	8	0,0124109602	8,13780935E-005
2	0	0	0	1	6011,15	2,60787034	2,60857964	-0,030842575913993645	8	0,012221829	8,04553129E-005
2	0	0	1	1	6017,25	2,5468657	2,54719949	-0,031814436282729728	8	0,0120291263	8,10377169E-005
2	0	0	1	1	6023,35	2,48586106	2,48634052	-0,032996576114480064	8	0,0118306819	8,20407222E-005
2	0	0	1	1	6029,45	2,42485642	2,42546177	-0,03430944651093648	8	0,0116244955	8,32162477E-005
2	0	0	0	1	6035,55	2,36385179	2,36415172	-0,035753722739173101	8	0,0114093525	8,45272225E-005
2	0	0	0	1	6041,65	2,30284715	2,30316234	-0,037498947941154938	8	0,0111843869	8,63661626E-005
2	0	0	0	1	6047,75	2,24184227	2,24222326	-0,039195717642239059	8	0,0109490147	8,78855499E-005
2	0	0	1	1	6053,85	2,18083763	2,18142438	-0,041019346361281459	8	0,0107026426	8,94805999E-005
2	0	0	1	1	6059,95	2,11983299	2,12027454	-0,042951710832615674	8	0,0104446113	9,10694216E-005
2	0	0	1	1	6060,73	2,11193275	2,11277676	-0,043805102817714214	8	0,0104106935	9,25504064E-005