File: Experimentelles/Rohdaten/Batterietests/AlteZelle/Studenten_Batterietests/LLTO_LP30_Li CV/ECLab-Export/LLTO_LP30_Li_02_CV_C01_loop6.mpt
EC-Lab ASCII FILE
Nb header lines : 3
mode	ox/red	error	control changes	counter inc.	time/s	control/V	Ewe/V	<I>/mA	cycle number	(Q-Qo)/C	P/W
2	0	0	1	0	4740,68	2,11153269	2,11157393	-0,048417542129755021	7	0	0,000102237223
2	0	0	0	0	4746,76	2,05072761	2,05121565	-0,04538223135750727	7	-0,000269767974	9,308874E-005
2	0	0	0	0	4752,86	1,98972309	1,99005616	-0,047786173061467706	7	-0,000554892642	9,50971662E-005
2	0	0	0	0	4758,96	1,92871833	1,92931759	-0,050313053070567546	7	-0,00085546117	9,70698602E-005
2	0	0	1	0	4765,07	1,86771369	1,86813784	-0,053281313642704275	7	-0,00117271638	9,95368391E-005
2	0	0	1	0	4771,17	1,80670917	1,80707848	-0,056981164690417638	7	-0,0015099718	0,000102969439
2	0	0	1	0	4777,27	1,74570453	1,74622953	-0,062247613406119168	7	-0,00187421043	0,000108698623
2	0	0	0	0	4783,37	1,68469965	1,6853404	-0,069656245604468045	7	-0,00227753702	0,000117394484
2	0	0	0	0	4789,47	1,62369514	1,62425089	-0,078570255427621299	7	-0,0027306811	0,000127617808
2	0	0	0	0	4795,57	1,56269026	1,56318152	-0,0953611013634752	7	-0,00325523829	0,000149066705
2	0	0	1	0	4801,71	1,50128579	1,50155079	-0,14672647505843395	7	-0,0039700754	0,000220317248
2	0	0	1	0	4807,81	1,44028103	1,44082212	-0,26788041104252179	7	-0,00520151807	0,000385968015
2	0	0	1	0	4813,91	1,37927639	1,37980282	-0,43680055998265741	7	-0,00734201912	0,000602698652
2	0	0	0	0	4820,01	1,31827164	1,31836247	-0,61185962303231117	7	-0,0105475029	0,000806652766
2	0	0	0	0	4826,11	1,25726712	1,25789452	-0,77488780440762547	7	-0,0147832865	0,000974727096
2	0	0	0	0	4832,21	1,19626248	1,19672489	-0,95336136221885862	7	-0,0200593229	0,00114091125
2	0	0	1	0	4838,35	1,13485777	1,1351341	-1,0888419502104334	7	-0,0263635311	0,00123598159
2	0	0	1	0	4844,45	1,07385314	1,07417488	-1,1642181541149803	7	-0,0332635604	0,0012505739
2	0	0	1	0	4850,55	1,0128485	1,01321578	-1,1894881930202227	7	-0,0404696055	0,00120520825
2	0	0	0	0	4856,65	0,951843798	0,952356815	-1,1586440711592614	7	-0,047665108	0,00110344263
2	1	0	1	0	4862,71	0,908840537	0,909091055	-0,92219488695263859	7	-0,0544023514	0,000838359119
2	1	0	1	0	4868,85	0,970245242	0,970922291	-0,2142026904815193	7	-0,0575815402	0,000207974168
2	1	0	1	0	4875,03	1,03204989	1,03248298	0,12110210536047773	7	-0,0577531792	0,000125035862
2	1	0	0	0	4881,13	1,09305465	1,09353232	0,31255930770809414	7	-0,0563892722	0,000341793697
2	1	0	0	0	4887,24	1,15405917	1,15449142	0,45769418962299821	7	-0,0540251993	0,000528404023
2	1	0	0	0	4893,34	1,21506393	1,21554089	0,58926742011681293	7	-0,0508250333	0,000716278621
2	1	0	1	0	4899,44	1,27606857	1,27647996	0,71067557996138752	7	-0,0468488447	0,000907163136
2	1	0	1	0	4905,54	1,33707309	1,33750939	0,81297992697606426	7	-0,0421870463	0,00108736823
2	1	0	1	0	4911,64	1,39807785	1,39855874	0,89192296223093773	7	-0,0369732007	0,0012474067
2	1	0	0	0	4917,74	1,4590826	1,45995903	0,9832993398110048	7	-0,0312994681	0,00143557671
2	1	0	0	0	4923,87	1,52038717	1,52081788	1,1262624089916554	7	-0,0247855298	0,00171284005
2	1	0	0	0	4929,97	1,58139181	1,58180714	1,0762994469453843	7	-0,0179093964	0,00170249818
2	1	0	1	0	4936,07	1,64239645	1,64270616	0,67200958635657754	7	-0,012411559	0,00110391423
2	1	0	1	0	4942,21	1,70380116	1,7040664	0,10723311931360514	7	-0,0101712979	0,000182732358
2	1	0	1	0	4948,31	1,76480579	1,76518595	0,055146014531298304	7	-0,00973838661	9,73429705E-005
2	1	0	0	0	4954,45	1,8262105	1,8267765	0,045399672904750163	7	-0,00943212863	8,29350538E-005
2	1	0	0	0	4960,55	1,88721502	1,88795626	0,041048095639174221	7	-0,00916831288	7,74970104E-005
2	1	0	0	0	4966,65	1,9482199	1,94875503	0,038966002844972538	7	-0,00892324466	7,59351969E-005
2	1	0	1	0	4972,75	2,00922465	2,00982451	0,038100419090672742	7	-0,00868655182	7,65751538E-005
2	1	0	1	0	4978,85	2,07022929	2,07103419	0,037990909845878771	7	-0,00845307298	7,8680474E-005
2	1	0	1	0	4984,95	2,13123369	2,13166237	0,038079337226615053	7	-0,00822042301	8,1172293E-005
2	1	0	0	0	4991,05	2,19223833	2,19260168	0,038428392911252326	7	-0,00798617769	8,42581576E-005
2	1	0	0	0	4997,15	2,25324297	2,25361109	0,039041043627851987	7	-0,00774852326	8,79833315E-005
2	1	0	0	0	5003,25	2,31424785	2,3145299	0,040114559339902611	7	-0,00750558823	9,28463487E-005
2	1	0	1	0	5009,35	2,37525249	2,37578011	0,041260736713108371	7	-0,00725572696	9,80264376E-005
2	1	0	1	0	5015,45	2,43625712	2,43655872	0,042760383298931059	7	-0,00699792709	0,000104188184
2	1	0	1	0	5021,56	2,49726176	2,49757791	0,044844593115461459	7	-0,00672881166	0,000112002868
2	1	0	0	0	5027,66	2,5582664	2,55871749	0,046592061786214003	7	-0,00644809147	0,000119215925
2	1	0	0	0	5033,76	2,61927104	2,6195364	0,048913665096430573	7	-0,00615511462	0,000128131127
2	1	0	0	0	5039,86	2,68027592	2,68074608	0,051257193049726426	7	-0,00584831461	0,000137407522
2	1	0	1	0	5045,96	2,74128056	2,74168515	0,053810899902600794	7	-0,00552617386	0,000147532541
2	1	0	1	0	5052,06	2,80228496	2,8026545	0,056318881009550291	7	-0,00518807722	0,000157842369
2	1	0	1	0	5058,16	2,86328983	2,86366415	0,059165374802735872	7	-0,0048336843	0,000169429768
2	1	0	0	0	5064,26	2,92429447	2,92497396	0,061936455410129152	7	-0,00446248846	0,000181162526
2	1	0	0	0	5070,36	2,98529911	2,98575258	0,064837880374397786	7	-0,00407425547	0,000193589862
2	1	0	0	0	5076,46	3,04630375	3,04709268	0,068085855881993728	7	-0,00366746238	0,00020746392
2	1	0	1	0	5082,56	3,10730839	3,10759091	0,071751632087398374	7	-0,00323974853	0,000222974719
2	1	0	1	0	5088,66	3,16831303	3,16888094	0,075481107458472358	7	-0,00278971181	0,000239190646
2	1	0	1	0	5094,76	3,22931767	3,22991014	0,080024855288987507	7	-0,0023144919	0,000258473097
2	1	0	0	0	5100,86	3,2903223	3,29061842	0,085730636744604685	7	-0,00180798792	0,000282106805
2	1	0	0	0	5106,96	3,35132694	3,35176802	0,09342476836172864	7	-0,00126063486	0,000313138153
2	1	0	0	0	5113,10	3,41273236	3,41307855	0,10329134501377802	7	-0,000656405406	0,00035254148
2	1	0	1	0	5119,20	3,47373629	3,47402763	0,11469635010386493	7	9,33773208E-006	0,000398458302
2	1	0	1	0	5125,30	3,53474116	3,53527737	0,12802823140130659	7	0,000750292151	0,000452615321
2	1	0	1	0	5131,40	3,59574437	3,59623504	0,14402866403329278	7	0,00158123684	0,000517960929
2	1	0	0	0	5137,50	3,65675044	3,65747619	0,15993868384975939	7	0,00251245545	0,000584971916
2	1	0	0	0	5143,60	3,71775508	3,71815467	0,17225542121256333	7	0,003528842	0,000640472281
2	1	0	1	0	5149,71	3,77876019	3,77927423	0,18368190137874675	7	0,00461637508	0,000694184273
2	1	0	1	0	5155,81	3,83976436	3,84012341	0,19679530865202288	7	0,00577773293	0,000755718269
2	1	0	1	0	5161,91	3,90076876	3,9014833	0,21301094760807837	7	0,00702814292	0,000831058656
2	1	0	1	0	5168,01	3,96177459	3,9622736	0,23106001481592998	7	0,00838296302	0,000915522978
2	1	0	0	0	5174,11	4,02277851	4,02327108	0,24843474640510976	7	0,00984807592	0,0009995203
2	1	0	0	0	5180,21	4,08378315	4,08426094	0,26224338596997043	7	0,0114107868	0,00107107044
2	1	0	1	0	5186,31	4,14478779	4,14500904	0,27046478244786522	7	0,0130378874	0,00112107897
2	0	0	1	1	5192,36	4,19469166	4,1952219	0,23026157092923859	7	0,0146961035	0,000965998392
2	0	0	0	1	5198,46	4,13368702	4,13427353	0,083139283795996442	7	0,01553139	0,000343720545
2	0	0	0	1	5204,60	4,07228231	4,07275248	0,039462131807037395	7	0,0158875659	0,000160719501
2	0	0	0	1	5210,70	4,01127815	4,01188469	0,017897096895477805	7	0,0160546731	7,18010924E-005
2	0	0	1	1	5216,84	3,94987273	3,95016241	0,0044576633032799366	7	0,0161191616	1,76084941E-005
2	0	0	1	1	5222,94	3,88886809	3,88943386	-0,0038882288354216211	7	0,0161183495	1,51230088E-005
2	0	0	1	1	5229,04	3,82786274	3,82824349	-0,0096914775426055475	7	0,0160750505	3,71013375E-005
2	0	0	0	1	5235,18	3,76645875	3,76679373	-0,013307473098393531	7	0,0160027165	5,01265058E-005
2	0	0	0	1	5241,28	3,70545411	3,70598507	-0,016275603649167635	7	0,015910469	6,03171429E-005
2	0	0	0	1	5247,38	3,64444947	3,64482474	-0,018750855446545229	7	0,0158017892	6,83435792E-005
2	0	0	1	1	5253,48	3,5834446	3,58393621	-0,02100264268422808	7	0,0156791303	7,52721317E-005
2	0	0	1	1	5259,58	3,52243996	3,52268648	-0,02240003897168208	7	0,0155455181	7,89083133E-005
2	0	0	1	1	5265,68	3,46143651	3,4618485	-0,023597575818573197	7	0,0154036889	8,16912288E-005
2	0	0	0	1	5271,79	3,40043068	3,40090823	-0,024590249396472531	7	0,0152549781	8,36291802E-005
2	0	0	0	1	5277,89	3,33942604	3,33988905	-0,025678725263181491	7	0,015099789	8,57640916E-005
2	0	0	1	1	5283,99	3,27842045	3,27887774	-0,026720403933258195	7	0,0149380742	8,76129343E-005
2	0	0	1	1	5290,09	3,21741652	3,21773028	-0,027700228422569667	7	0,0147701036	8,91318632E-005
2	0	0	1	1	5296,19	3,15641189	3,15681124	-0,028620047358951184	7	0,0145965572	9,03480905E-005
2	0	0	1	1	5302,29	3,09540772	3,0961225	-0,029148605685889062	7	0,0144182071	9,02476531E-005
2	0	0	0	1	5308,39	3,03440285	3,03490305	-0,029769379209028666	7	0,0142362174	9,0347181E-005
2	0	0	0	1	5314,49	2,97339821	2,97384334	-0,030123722700712621	7	0,014051904	8,95832345E-005
2	0	0	1	1	5320,59	2,91239429	2,91285563	-0,030259825561826298	7	0,0138659617	8,81425003E-005
2	0	0	1	1	5326,69	2,85138893	2,85188508	-0,030225734983105242	7	0,0136792054	8,62003217E-005
2	0	0	1	1	5332,79	2,79038429	2,79078555	-0,030374256030578752	7	0,013492058	8,47680349E-005
2	0	0	0	1	5338,89	2,72937918	2,7297461	-0,030419543469876429	7	0,0133048492	8,30376302E-005
2	0	0	0	1	5344,99	2,66837502	2,66875696	-0,030669138533994611	7	0,0131172379	8,18484768E-005
2	0	0	0	1	5351,09	2,60737014	2,60792804	-0,031008351788235245	7	0,0129280379	8,08675468E-005
2	0	0	0	1	5357,19	2,54636574	2,54702878	-0,031794325230084186	7	0,0127353584	8,0981059E-005
2	0	0	1	1	5363,29	2,4853611	2,48590946	-0,032885800920970074	7	0,0125370082	8,17511245E-005
2	0	0	1	1	5369,39	2,42435646	2,42491007	-0,034218276540438406	7	0,0123309512	8,2976243E-005
2	0	0	0	1	5375,49	2,36335087	2,36380911	-0,035709546107542957	7	0,0121159535	8,44105525E-005
2	0	0	0	1	5381,59	2,30234671	2,30274129	-0,037401945378708998	7	0,0118910884	8,61270019E-005
2	0	0	0	1	5387,69	2,24134231	2,24176216	-0,039201789651997389	7	0,0116557973	8,78810897E-005
2	0	0	1	1	5393,79	2,18033767	2,18084288	-0,041127895354293286	7	0,011409454	8,96934798E-005
2	0	0	1	1	5399,89	2,11933279	2,11968327	-0,043070402520243021	7	0,0111514004	9,12956093E-005
2	0	0	0	1	5400,64	2,11183286	2,11197495	-0,043343717853228326	7	0,0111189485	9,15408455E-005