File: Experimentelles/Rohdaten/Batteriemessungen/AlteZelle/Studenten_Batterietests/LiNiMnO_LATP_LTO-Spinell/CV/ECLab-Export/LiNiMnO-LATP-LTO_Spinell_C01.mpt
EC-Lab ASCII FILE
Nb header lines : 55

Cyclic Voltammetry

Run on channel : 1 (SN 6985)
Grouped channel(s) : 1
User :
CE vs. WE compliance from -10 V to 10 V
Electrode connection : standard
Ewe ctrl range : min = -5,00 V, max = 5,00 V
Acquisition started on : 02.10.2015 14:36:53
Saved on :
	File : LiNiMnO-LATP-LTO_Spinell_C01.mpr
	Directory : C:\Hupfer\Studenten Batterietests\LiNiMnO_LATP_LTO-Spinell\CV\
	Host : 192.168.0.2
Device : VMP3 (SN 0324)
Address : 192.168.0.1
EC-Lab for windows v10.33 (software)
Internet server v10.33 (firmware)
Command interpretor v10.32 (firmware)
Electrode material :
Initial state :
Electrolyte :
Comments :
Mass of active material : 0,001 mg
 at x = 0,000
Molecular weight of active material (at x = 0) : 0,001 g/mol
Atomic weight of intercalated ion : 0,001 g/mol
Acquisition started at : xo = 0,000
Number of e- transfered per intercalated ion : 1
for DX = 1, DQ = 26,801 mA.h
Battery capacity : 0,000 A.h
Electrode surface area : 0,001 cm²
Characteristic mass : 0,001 g
Ei (V)              0,000
vs.                 Eoc
dE/dt               20,000
dE/dt unit          mV/s
E1 (V)              1,000
vs.                 Ref
Step percent        50
N                   10
E range min (V)     -5,000
E range max (V)     5,000
I Range             Auto
Bandwidth           5
E2 (V)              -1,000
vs.                 Ref
nc cycles           0
Reverse Scan        1
Ef (V)              0,000
vs.                 Eoc

mode	ox/red	error	control changes	counter inc.	time/s	control/V	Ewe/V	<I>/mA	cycle number	(Q-Qo)/C	P/W
2	1	0	1	0	0,0000	0,493685216	0,494432837	2,0373672668938525E-005	1	0	1,00734132E-008
2	1	0	0	0	2,0552	0,534787536	0,535377264	6,6306783899697843E-005	1	7,67522153E-008	3,5499145E-008
2	1	0	1	0	4,1554	0,576790154	0,577368915	0,00012369433099795229	1	2,76936646E-007	7,14172614E-008
2	1	0	1	0	6,2554	0,618792772	0,619458556	0,00017933525690818096	1	5,95857728E-007	1,11090756E-007
2	1	0	0	0	8,3556	0,660795271	0,661356688	0,00023444569045818045	1	1,03100615E-006	1,5505222E-007
2	1	0	1	0	10,4558	0,702797771	0,703299284	0,00028807405962854445	1	1,58024375E-006	2,0260228E-007
2	1	0	1	0	12,5558	0,744800448	0,745277524	0,00034107113764616019	1	2,24115252E-006	2,54192656E-007
2	1	0	0	0	14,6560	0,786803007	0,787407279	0,0003935901322283479	1	3,01315254E-006	3,09915748E-007
2	1	0	1	0	16,7562	0,828805685	0,829283059	0,00044533350134130266	1	3,89460365E-006	3,69307514E-007
2	1	0	1	0	18,8562	0,870808125	0,871408343	0,00049647926284200787	1	4,88399382E-006	4,3263617E-007
2	1	0	0	0	20,9564	0,912810624	0,913373232	0,00054725910909096461	1	5,98052111E-006	4,99851808E-007
2	1	0	1	0	23,0566	0,954813182	0,955445111	0,00059763218262189402	1	7,1831746E-006	5,71004762E-007
2	1	0	1	0	25,1566	0,99681586	0,997271895	0,0006475144106877504	1	8,4911735E-006	6,45747946E-007
2	0	0	0	0	27,1672	0,962813795	0,963268757	0,00058497872177449254	1	9,73544775E-006	5,6349171E-007
2	0	0	1	0	29,2674	0,920811236	0,921384037	0,00051865749662317363	1	1,08932682E-005	4,77882736E-007
2	0	0	0	0	31,3676	0,878808558	0,879521608	0,00045521152329726022	1	1,19151127E-005	4,00368378E-007
2	0	0	0	0	33,4676	0,836805999	0,837222517	0,000393549056685448	1	1,2805629E-005	3,29488131E-007
2	0	0	1	0	35,5678	0,794803441	0,795400143	0,00033321363369193722	1	1,35680848E-005	2,65038182E-007
2	0	0	0	0	37,6680	0,752800941	0,753323913	0,00027432810892841405	1	1,42052786E-005	2,0665793E-007
2	0	0	0	0	39,7680	0,710798383	0,711443722	0,00021614450644038762	1	1,47196242E-005	1,5377465E-007
2	0	0	1	0	41,8682	0,668795764	0,669220388	0,00015861810583441232	1	1,51126042E-005	1,06150473E-007
2	0	0	1	0	43,9683	0,626792252	0,627504408	0,00010215872668491534	1	1,53857036E-005	6,41050519E-008
2	0	0	0	0	46,0684	0,584790647	0,585393012	4,6345548235472582E-005	1	1,55412563E-005	2,71303602E-008
2	0	0	1	0	48,1686	0,542788088	0,543258846	-8,6756708345577882E-006	1	1,55803682E-005	4,71313477E-009
2	0	0	1	0	50,2686	0,50078553	0,50131613	-6,3166422149960064E-005	1	1,55040616E-005	3,1666346E-008
2	0	0	0	0	52,3688	0,458782881	0,459284425	-0,00011703406643290563	1	1,53142828E-005	5,37519256E-008
2	0	0	1	0	54,4690	0,416780323	0,417279422	-0,0001701817577499983	1	1,50122851E-005	7,10133463E-008
2	0	0	1	0	56,5690	0,374777794	0,375416994	-0,00022302245347587037	1	1,45988051E-005	8,37264196E-008
2	0	0	0	0	58,6692	0,332775205	0,333233804	-0,00027537775831323885	1	1,40748589E-005	9,17651803E-008
2	0	0	1	0	60,7694	0,290772617	0,291393608	-0,00032690027684886291	1	1,34419006E-005	9,52566523E-008
2	0	0	1	0	62,8694	0,248770043	0,249393076	-0,00037843045353198534	1	1,27010808E-005	9,43779312E-008
2	0	0	0	0	64,9696	0,206767455	0,20730342	-0,00042939878679775264	1	1,18523149E-005	8,90158347E-008
2	0	0	1	0	67,0698	0,164764896	0,165280595	-0,00047962935935141024	1	1,08972281E-005	7,92734269E-008
2	0	0	1	0	69,1698	0,12276233	0,123480566	-0,00052964205409538298	1	9,83717382E-006	6,54004992E-008
2	0	0	0	0	71,2700	0,0807597637	0,081341885	-0,00057943710729617754	1	8,67244034E-006	4,71325059E-008
2	0	0	1	0	73,3702	0,0387571864	0,0394081734	-0,00062885298602513856	1	7,40319456E-006	2,47819472E-008
2	0	0	1	0	75,4702	-0,00324538653	-0,00267702644	-0,00067807704989617203	1	6,03093531E-006	1,81523019E-009
2	0	0	0	0	77,5704	-0,0452479795	-0,0445394777	-0,00072651684638037542	1	4,55572763E-006	3,23586811E-008
2	0	0	0	0	79,6704	-0,087250568	-0,0865534097	-0,00077520647984648986	1	2,97857105E-006	6,70967637E-008
2	0	0	1	0	81,7706	-0,129253164	-0,128567353	-0,00082378529677279782	1	1,29913599E-006	1,05911894E-007
2	0	0	0	0	83,8708	-0,171255738	-0,170630291	-0,00087187321615702758	1	-4,8203259E-007	1,48767981E-007
2	0	0	0	0	85,9708	-0,213258341	-0,212479353	-0,00091963555893959795	1	-2,36352344E-006	1,95403572E-007
2	0	0	1	0	88,0710	-0,255260944	-0,254609138	-0,00096767411041246042	1	-4,34585081E-006	2,46378676E-007
2	0	0	0	0	90,1712	-0,297263533	-0,296618581	-0,0010155349789581851	1	-6,42898294E-006	3,01226549E-007
2	0	0	0	0	92,2712	-0,339266121	-0,338908762	-0,001063364802474905	1	-8,61229E-006	3,60383638E-007
2	0	0	1	0	94,3714	-0,38126871	-0,380450428	-0,0011109893538458776	1	-1,08960385E-005	4,22676379E-007
2	0	0	0	0	96,4716	-0,423271298	-0,422682732	-0,0011587253203389179	1	-1,32799096E-005	4,89773186E-007
2	0	0	0	0	98,5716	-0,465273947	-0,464616418	-0,0012035002221603472	1	-1,57625764E-005	5,59165983E-007
2	0	0	1	0	100,6718	-0,507276475	-0,506639302	-0,0012542269108019293	1	-1,83471602E-005	6,35440642E-007
2	0	0	0	0	102,7720	-0,549279094	-0,548483908	-0,0013015804204904376	1	-2,10312646E-005	7,13895929E-007
2	0	0	0	0	104,8720	-0,591281712	-0,59068054	-0,0013490576822261061	1	-2,38146786E-005	7,96862139E-007
2	0	0	1	0	106,9722	-0,633284211	-0,632685542	-0,0013967460139678277	1	-2,66984407E-005	8,83701034E-007
2	0	0	0	0	109,0724	-0,675286829	-0,674552381	-0,0014442140182600925	1	-2,96821454E-005	9,74197974E-007
2	0	0	0	0	111,1724	-0,717289507	-0,716691136	-0,0014916810312705018	1	-3,27653397E-005	1,06907453E-006
2	0	0	1	0	113,2726	-0,759292066	-0,758549154	-0,0015393168979682266	1	-3,59486694E-005	1,1676475E-006
2	0	0	1	0	115,3726	-0,801294625	-0,80078584	-0,0015869977979929491	1	-3,92316761E-005	1,27084536E-006
2	0	0	0	0	117,4728	-0,843297184	-0,842380941	-0,0016344424056350602	1	-4,26149818E-005	1,37682309E-006
2	0	0	1	0	119,5730	-0,885299742	-0,88444382	-0,0016814436266604019	1	-4,60976116E-005	1,48714241E-006
2	0	0	1	0	121,6730	-0,92730242	-0,926747441	-0,0017291815842057738	1	-4,96791763E-005	1,60251466E-006
2	0	0	0	0	123,7732	-0,969305038	-0,968667746	-0,001776784746282456	1	-5,33611019E-005	1,72111413E-006
2	1	0	0	1	125,7640	-0,990906358	-0,990093589	-0,001792473003054816	1	-5,69362528E-005	1,774716E-006
2	1	0	0	1	127,8640	-0,948903799	-0,948083997	-0,001718770993681607	1	-6,0621147E-005	1,62953927E-006
2	1	0	1	1	129,9642	-0,906901121	-0,906074643	-0,001649873400445489	1	-6,41573206E-005	1,49490847E-006
2	1	0	0	1	132,0644	-0,864898503	-0,864136457	-0,0015825634033751149	1	-6,75511765E-005	1,36755068E-006
2	1	0	0	1	134,1644	-0,822895944	-0,822287261	-0,0015163208438564291	1	-7,08042644E-005	1,2468513E-006
2	1	0	1	1	136,2646	-0,780893326	-0,780113041	-0,0014516867564385338	1	-7,39199968E-005	1,13247972E-006
2	1	0	1	1	138,3647	-0,738889396	-0,73805356	-0,0013870383203717085	1	-7,68999525E-005	1,02370859E-006
2	1	0	0	1	140,4648	-0,696888149	-0,69602716	-0,0013235202933612032	1	-7,9745565E-005	9,21206095E-007
2	1	0	1	1	142,5650	-0,65488553	-0,654178023	-0,0012607776017695728	1	-8,24586168E-005	8,24772997E-007
2	1	0	1	1	144,6650	-0,612882972	-0,612262189	-0,0011986732784458214	1	-8,50405486E-005	7,33902311E-007
2	1	0	0	1	146,7652	-0,570880413	-0,570226014	-0,001136864062573295	1	-8,74925536E-005	6,48269463E-007
2	1	0	1	1	148,8654	-0,528877795	-0,528247774	-0,0010756651245174032	1	-8,9815454E-005	5,68217729E-007
2	1	0	1	1	150,9654	-0,486875206	-0,486309528	-0,0010151574098455472	1	-9,20103921E-005	4,93680716E-007
2	1	0	0	1	153,0656	-0,444872618	-0,444197536	-0,00095495629109252582	1	-9,40786194E-005	4,24189238E-007
2	1	0	1	1	155,1658	-0,402870059	-0,402192503	-0,00089523802671464998	1	-9,60208345E-005	3,6005801E-007
2	1	0	1	1	157,2658	-0,360867441	-0,360004872	-0,00083617762626359782	1	-9,78385433E-005	3,01028024E-007
2	1	0	0	1	159,3660	-0,318864852	-0,318249315	-0,00077733073326440026	1	-9,95323135E-005	2,47384975E-007
2	1	0	1	1	161,4662	-0,276862264	-0,276302248	-0,00071883658569681446	1	-0,000101102785	1,98616164E-007
2	1	0	1	1	163,5662	-0,23485966	-0,234323919	-0,00066084864246713024	1	-0,000102550934	1,54852643E-007
2	1	0	0	1	165,6664	-0,192857072	-0,192118436	-0,00060328924566285453	1	-0,000103878068	1,15902985E-007
2	1	0	1	1	167,7666	-0,150854498	-0,150247052	-0,0005458284103951865	1	-0,000105084233	8,20091088E-008
2	1	0	1	1	169,8666	-0,108851902	-0,10817077	-0,00048923060455342227	1	-0,00010617049	5,2920452E-008
2	1	0	0	1	171,9668	-0,0668493137	-0,0661390051	-0,00043270121912226086	1	-0,000107138272	2,86184285E-008
2	1	0	0	1	174,0668	-0,0248467214	-0,0242052693	-0,00037655234353695565	1	-0,000107987697	9,11455089E-009
2	1	0	1	1	176,1670	0,0171558633	0,0175947975	-0,00032100404280720698	1	-0,000108719614	5,64800118E-009
2	1	0	0	1	178,2672	0,0591584332	0,0598403886	-0,00026564123224185686	1	-0,000109335058	1,58960738E-008
2	1	0	0	1	180,3672	0,101160996	0,101885483	-0,00021062632138771875	1	-0,00010983456	2,14597637E-008
2	1	0	1	1	182,4674	0,143163577	0,143903852	-0,00015576913097835018	1	-0,000110218614	2,24157777E-008
2	1	0	0	1	184,5676	0,18516615	0,185797483	-0,00010129693179839718	1	-0,000110487978	1,88207157E-008
2	1	0	0	1	186,6676	0,227168724	0,227904961	-4,7269974852834266E-005	1	-0,000110643996	1,07730616E-008
2	1	0	1	1	188,7678	0,269171298	0,269785196	6,3174946075427085E-006	1	-0,000110686189	1,70436654E-009
2	1	0	0	1	190,8680	0,311173856	0,311767966	5,9854309702805747E-005	1	-0,000110616027	1,8660657E-008
2	1	0	0	1	192,9680	0,353176445	0,353795201	0,00011298917572141286	1	-0,00011043399	3,99750277E-008
2	1	0	1	1	195,0682	0,395179003	0,395751178	0,00016586006493660611	1	-0,000110140565	6,56393127E-008
2	1	0	0	1	197,1684	0,437181562	0,437769592	0,00021857516299793126	1	-0,000109736415	9,56855573E-008
2	1	0	0	1	199,2684	0,47918418	0,479859233	0,00027085327524724051	1	-0,000109222034	1,2997144E-007
2	1	0	0	1	199,9878	0,493685216	0,493951648	0,0002775964716089552	1	-0,000109020701	1,3711923E-007