File: Experimentelles/Ausgewaehlte_Daten/LTO/CV/schlecht/LTO_LP30_Li_Aufladen_03_CV_C03.mpt
EC-Lab ASCII FILE
Nb header lines : 64

Cyclic Voltammetry

Run on channel : 3 (SN 6987)
Grouped channel(s) : 3
User :
CE vs. WE compliance from -10 V to 10 V
Electrode connection : standard
Ewe ctrl range : min = -5,00 V, max = 5,00 V
Acquisition started on : 05.11.2015 15:06:40
Saved on :
	File : LTO_LP30_Li_Aufladen_03_CV_C03.mpr
	Directory : C:\Hupfer\150511_LLTO_LTO_Tests\LTO_Aufladen\
	Host : 192.168.0.2
Device : VMP3 (SN 0324)
Address : 192.168.0.1
EC-Lab for windows v10.33 (software)
Internet server v10.33 (firmware)
Command interpretor v10.32 (firmware)
Electrode material :
Initial state :
Electrolyte :
Comments :
Mass of active material : 0,001 mg
 at x = 0,000
Molecular weight of active material (at x = 0) : 0,001 g/mol
Atomic weight of intercalated ion : 0,001 g/mol
Acquisition started at : xo = 0,000
Number of e- transfered per intercalated ion : 1
for DX = 1, DQ = 26,801 mA.h
Battery capacity : 0,000 A.h
Electrode surface area : 0,001 cm²
Characteristic mass : 0,001 g
Ei (V)              0,000
vs.                 Eoc
dE/dt               20,000
dE/dt unit          mV/s
E1 (V)              4,000
vs.                 Ref
Step percent        50
N                   10
E range min (V)     -5,000
E range max (V)     5,000
I Range             Auto
Bandwidth           5
E2 (V)              1,000
vs.                 Ref
nc cycles           0
Reverse Scan        1
Ef (V)              0,000
vs.                 Eoc

Number of loops : 7
Loop 0 from point number 0 to 3002
Loop 1 from point number 3003 to 6002
Loop 2 from point number 6003 to 9003
Loop 3 from point number 9004 to 12003
Loop 4 from point number 12004 to 15003
Loop 5 from point number 15004 to 18003
Loop 6 from point number 18004 to 21003

mode	ox/red	error	control changes	counter inc.	time/s	control/V	Ewe/V	<I>/mA	cycle number	(Q-Qo)/C	P/W
2	1	0	0	0	295223,9078	1,29745698	1,29819894	0,0087835211306810381	1	0	1,1402758E-005
2	1	0	1	0	295243,7718	1,69473708	1,69559216	2,9868894531220109	1	0,0267100781	0,00506454613
2	1	0	0	0	295263,5708	2,09071779	2,09147787	6,3561554219988019	1	0,1202043	0,013293758
2	1	0	1	0	295283,3697	2,48669863	2,48744369	7,0095565429442099	1	0,266120315	0,0174358767
2	1	0	0	0	295303,1687	2,88267922	2,8835783	0,73659967541417792	1	0,320270926	0,00212404295
2	1	0	0	0	295322,9679	3,27865982	3,27945042	0,63847153434322662	1	0,333450735	0,00209383573
2	1	0	1	0	295342,7669	3,67464089	3,67554045	0,70072892680761536	1	0,346284896	0,00257555745
2	0	0	0	0	295362,3863	3,93282819	3,93364882	0,56797856099351565	1	0,362427175	0,00223422819
2	0	0	0	0	295382,2655	3,53524733	3,53608584	0,042741190866325619	1	0,366313607	0,000151136526
2	0	0	1	0	295402,1445	3,1376667	3,13852739	-0,023009405303229814	1	0,366398096	7,22156474E-005
2	0	0	0	0	295421,9434	2,74168587	2,74254441	-0,050316302002302528	1	0,365639448	0,000137994692
2	0	0	1	0	295441,7424	2,34570551	2,34652519	-0,069835766451432358	1	0,36444217	0,000163871387
2	0	0	0	0	295461,5814	1,9489249	1,94965637	-0,11727391160955618	1	0,36277616	0,000228643825
2	0	0	0	0	295481,3806	1,55294418	1,55369961	-0,35253363706309427	1	0,358711958	0,000547731353
2	0	0	1	0	295501,2096	1,15636349	1,1572758	-2,2236861454115485	1	0,339288861	0,0025734182
2	1	0	0	1	295520,8790	1,23715949	1,23797333	-0,97929218687390579	1	0,287671626	0,00121233764
2	1	0	1	0	295540,6288	1,6309402	1,63179481	2,6018593548624426	2	0,0183374137	0,00424570078
2	1	0	1	0	295560,4679	2,02772093	2,02838326	0,29516586206025152	2	0,0727685764	0,000598709506
2	1	0	0	0	295580,2669	2,42370152	2,42446017	0,084035895307790234	2	0,0752876252	0,000203741685
2	1	0	1	0	295600,0659	2,81968236	2,8204391	0,10162054517961706	2	0,0770997033	0,000286614551
2	1	0	0	0	295619,8649	3,21566319	3,21662712	0,14309006879382086	2	0,0794768855	0,000460267387
2	1	0	1	0	295639,6640	3,61164379	3,61246395	0,30539791890645594	2	0,0835122466	0,00110323902
2	0	0	1	0	295659,3335	3,99482465	3,99561739	0,75307145211157517	2	0,0942575559	0,00300898543
2	0	0	0	0	295679,1725	3,5980444	3,59872198	0,031302206192372653	2	0,0988644809	0,00011264794
2	0	0	0	0	295699,0516	3,20046353	3,20137262	-0,03424120045922441	2	0,0986801609	0,000109618843
2	0	0	1	0	295718,8506	2,80448294	2,80518913	-0,057753380681215962	2	0,0977219269	0,00016200915
2	0	0	0	0	295738,6496	2,40850234	2,40932155	-0,074605239011968474	2	0,0963952094	0,000179748007
2	0	0	1	0	295758,4886	2,01172161	2,01245284	-0,099873755661842086	2	0,0947246552	0,000200991228
2	0	0	0	0	295778,2876	1,61574113	1,61657166	-0,27417396633298186	2	0,0913929194	0,000443221856
2	0	0	0	0	295798,1168	1,21916044	1,21996999	-1,5259085361052912	2	0,0779583529	0,0018615626
2	1	0	1	1	295817,8261	1,17516255	1,17583096	-1,5210906102977226	2	0,0267914049	0,0017885454
2	1	0	0	0	295837,7159	1,57174301	1,5726639	2,1522715632562637	3	0,0126246177	0,0033847997
2	1	0	1	0	295857,5549	1,96852398	1,96922588	0,36194965419256307	3	0,0679249614	0,000712760608
2	1	0	1	0	295877,3541	2,36450434	2,36528921	0,079336612364621414	3	0,0705205947	0,000187654034
2	1	0	0	0	295897,1531	2,76048517	2,76135278	0,091809034235429939	3	0,0721975341	0,000253517122
2	1	0	1	0	295916,9521	3,15646577	3,15723872	0,12274280099060165	3	0,0743032247	0,000387528329
2	1	0	0	0	295936,7511	3,5524466	3,5532217	0,23178855046906221	3	0,0775332451	0,000823596085
2	1	0	1	0	295956,5500	3,94842744	3,9493258	0,6492984324555817	3	0,0858263969	0,002564291
2	0	0	1	0	295976,2196	3,65804124	3,65900517	0,037128767649710739	3	0,0913112089	0,000135854352
2	0	0	0	0	295996,0986	3,26046085	3,26125574	-0,03509646646799177	3	0,0911146998	0,000114458555
2	0	0	0	0	296015,8977	2,8644793	2,86528039	-0,057659341854748531	3	0,0901486352	0,000165210178
2	0	0	1	0	296035,6968	2,46849918	2,46921754	-0,072598972237082278	3	0,0888471901	0,000179262657
2	0	0	0	0	296055,4958	2,07251883	2,07317638	-0,089748689715095757	3	0,0872401968	0,000186064863
2	0	0	1	0	296075,3348	1,67573822	1,67648113	-0,22192268008021149	3	0,0844392776	0,000372049195
2	0	0	0	0	296095,1637	1,2791574	1,27985704	-1,0832621092321854	3	0,0744632185	0,00138642068
2	1	0	0	1	296114,8733	1,11516547	1,11596608	-2,1566638827875443	3	0,0259652864	0,00240676384
2	1	0	1	0	296134,7071	1,51054633	1,51133573	1,6221530705138784	4	0,00722534489	0,00245161797
2	1	0	0	0	296154,5061	1,9065268	1,90730119	1,1415926542271429	4	0,0646525249	0,00217736093
2	1	0	1	0	296174,3451	2,30330753	2,30407238	0,078477993383313805	4	0,0684726536	0,00018081897
2	1	0	1	0	296194,1443	2,69928837	2,7001667	0,087037149333840883	4	0,0700879693	0,000235014813
2	1	0	0	0	296213,9433	3,09526896	3,09602141	0,11232741254692386	4	0,0720516369	0,000347768073
2	1	0	1	0	296233,7422	3,4912498	3,49216032	0,18942233497552685	4	0,0748508051	0,000661493163
2	1	0	0	0	296253,5412	3,88722992	3,88809943	0,51994405790333786	4	0,0813927501	0,00202159421
2	0	0	0	0	296273,2508	3,71843886	3,71921515	0,050474426989706221	4	0,0877164155	0,000187725251
2	0	0	1	0	296293,1498	3,32045746	3,32116914	-0,034496306890138387	4	0,0875877813	0,000114568073
2	0	0	0	0	296312,9488	2,92447734	2,92525721	-0,056978040564530598	4	0,086632438	0,000166675425
2	0	0	1	0	296332,7478	2,5284965	2,52928257	-0,07071402868152599	4	0,0853601396	0,000178855757
2	0	0	1	0	296352,5469	2,13251567	2,13328576	-0,08542035648564905	4	0,0838033631	0,000182226024
2	0	0	0	0	296372,3859	1,73573518	1,73640823	-0,18229858730747274	4	0,0813851431	0,000316544756
2	0	0	1	0	296392,1849	1,33975458	1,34059834	-0,79010525207830541	4	0,0737851039	0,00105921377
2	1	0	0	1	296411,9243	1,05516791	1,05594945	-2,8957019824125894	4	0,0305867326	0,00305771502
2	1	0	0	0	296431,8023	1,45154905	1,45246279	1,1065536392507198	5	0,00335721415	0,00160722795
2	1	0	1	0	296451,6013	1,84752977	1,84830821	2,9621999531432902	5	0,0583388843	0,00547505869
2	1	0	0	0	296471,4303	2,24411035	2,24487019	0,078487107185303718	5	0,0672659501	0,000176193367
2	1	0	1	0	296491,2292	2,64009118	2,64083576	0,083691216962137126	5	0,0688443854	0,000221014765
2	1	0	0	0	296511,0282	3,0360713	3,0368681	0,10537936379260027	5	0,0707080439	0,000320023217
2	1	0	0	0	296530,8274	3,43205237	3,43277597	0,16194712846643133	5	0,073232457	0,000555928214
2	1	0	1	0	296550,6264	3,82803321	3,82884383	0,4235311318878647	5	0,0785443857	0,00162163458
2	0	0	1	0	296570,2759	3,7788341	3,77957845	0,070068667264050035	5	0,085438855	0,000264830014
2	0	0	0	0	296590,1950	3,38045454	3,38118553	-0,033125364523450829	5	0,0854485482	0,000112003007
2	0	0	1	0	296609,9940	2,98447442	2,98528671	-0,056480706264092851	5	0,0845161453	0,000168611106
2	0	0	0	0	296629,7929	2,58849382	2,58941007	-0,068962303352436467	5	0,083271645	0,000178571689
2	0	0	1	0	296649,5919	2,19251275	2,19334173	-0,08278304838609696	5	0,0817597285	0,000181571508
2	0	0	0	0	296669,4309	1,79573226	1,79647768	-0,15370864179675571	5	0,0796145722	0,000276134146
2	0	0	0	0	296689,2301	1,39975154	1,40051651	-0,58422116562722509	5	0,0736363307	0,000818211411
2	0	0	1	0	296709,0691	1,00297093	1,0035944	-3,6277881066004237	5	0,0383190811	0,00364082772
2	1	0	0	0	296728,8653	1,39195204	1,39289165	0,58475918805709875	6	0,000901215593	0,000814506202
2	1	0	0	0	296748,6945	1,78853261	1,78910184	3,9444483877331251	6	0,0477550961	0,00705701998
2	1	0	1	0	296768,5334	2,18531322	2,186064	0,080359833004576166	6	0,0662932098	0,000175671739
2	1	0	0	0	296788,3324	2,58129406	2,5820477	0,081178469583391258	6	0,0678517446	0,000209606675
2	1	0	1	0	296808,1314	2,97727466	2,97799969	0,099964545418820275	6	0,069637686	0,00029769438
2	1	0	0	0	296827,9304	3,37325501	3,37408948	0,14298115220541518	6	0,0719702989	0,000482431205
2	1	0	0	0	296847,7296	3,76923609	3,77004242	0,34933296049496595	6	0,076387912	0,00131700013
2	0	0	1	0	296867,4190	3,83683276	3,83754969	0,10123410267341558	6	0,083666496	0,000388490909
2	0	0	0	0	296887,3380	3,43845224	3,43924403	-0,031047339305384506	6	0,083883293	0,000106779378
2	0	0	0	0	296907,1371	3,04247141	3,04334092	-0,055586206347301267	6	0,0829824284	0,000169167775
2	0	0	1	0	296926,9361	2,64649057	2,64729953	-0,066049491400241638	6	0,0817614943	0,000174852787
2	0	0	0	0	296946,7351	2,25050998	2,25110698	-0,080584258832796736	6	0,080292441	0,000181403782
2	0	0	1	0	296966,5741	1,85372937	1,85447419	-0,13560956276745806	6	0,0783443898	0,000251484424
2	0	0	0	0	296986,3731	1,45774877	1,45850396	-0,44527399636529094	6	0,0734839961	0,000649433874
2	0	0	0	0	297006,2023	1,06116807	1,06194222	-2,9529182267961286	6	0,0465796366	0,00313582853
2	1	0	1	0	297025,9126	1,33215487	1,33295107	0,077663375150962662	7	-5,80005762E-005	0,000103521481
2	1	0	0	0	297045,7816	1,72953546	1,73029149	3,6235872794081843	7	0,0364108309	0,00626986241
2	1	0	0	0	297065,6208	2,12631702	2,12718749	0,087237048194142912	7	0,0653872639	0,000185569559
2	1	0	1	0	297085,4198	2,52229691	2,52309036	0,079331008726040819	7	0,0669452921	0,000200159309
2	1	0	0	0	297105,2188	2,9182775	2,91916704	0,095519069151058573	7	0,0686669126	0,000278836116
2	1	0	1	0	297125,0178	3,31425786	3,31507444	0,1299711935981025	7	0,0708549246	0,000430864195
2	1	0	0	0	297144,8168	3,71023917	3,71110725	0,28843671304208442	7	0,0746088475	0,00107041956
2	0	0	0	0	297164,4563	3,89682937	3,89770412	0,16342955606954957	7	0,0820378438	0,000637000077
2	0	0	1	0	297184,3753	3,49844909	3,49930501	-0,027447711033919741	7	0,0826022252	9,60479156E-005
2	0	0	0	0	297204,1743	3,10246849	3,10325003	-0,054009789695826925	7	0,0817453042	0,000167605875
2	0	0	0	0	297223,9735	2,70648646	2,70726132	-0,064769363420905779	7	0,0805471167	0,000175347595
2	0	0	1	0	297243,7725	2,31050706	2,31133223	-0,078119142929572954	7	0,0791205838	0,000180559291
2	0	0	0	0	297263,6115	1,91372657	1,91438353	-0,12112582200724086	7	0,0773315653	0,000231881277
2	0	0	1	0	297283,4105	1,51774597	1,51873374	-0,34945625042611475	7	0,0732990429	0,000530730991
2	0	0	0	0	297303,2394	1,12116528	1,12195826	-2,3004457175179168	7	0,0532412454	0,00258100405
2	1	0	0	1	297322,9890	1,27395773	1,27486587	-0,42759130384633261	7	0,00974772405	0,000545121555
2	1	0	0	1	297324,4364	1,30305672	1,30388427	-0,1685907152982864	7	0,0093177231	0,000219822788