File: Experimentelles/Rohdaten/Batteriemessungen/AlteZelle/Studenten_Batterietests/LiCoO2_LATP_Li/PEIS_GCPL/ECLab-Export/LiCoO2_LATP_Li_05_OCV_C02.mpt
EC-Lab ASCII FILE
Nb header lines : 46

Open Circuit Voltage

Run on channel : 2 (SN 6986)
Grouped channel(s) : 2
User :
CE vs. WE compliance from -10 V to 10 V
Electrode connection : standard
Ewe ctrl range : min = -10,00 V, max = 10,00 V
Acquisition started on : 02.12.2015 14:59:29
Saved on :
	File : LiCoO2_LATP_Li_05_OCV_C02.mpr
	Directory : C:\Hupfer\Studenten Batterietests\LiCoO2_LATP_Li\PEIS_GCPL\
	Host : 192.168.0.2
Device : VMP3 (SN 0324)
Address : 192.168.0.1
EC-Lab for windows v10.33 (software)
Internet server v10.33 (firmware)
Command interpretor v10.32 (firmware)
Electrode material :
Initial state :
Electrolyte :
Comments :
Mass of active material : 0,001 mg
 at x = 0,000
Molecular weight of active material (at x = 0) : 0,001 g/mol
Atomic weight of intercalated ion : 0,001 g/mol
Acquisition started at : xo = 0,000
Number of e- transfered per intercalated ion : 1
for DX = 1, DQ = 26,801 mA.h
Battery capacity : 0,000 A.h
Electrode surface area : 0,001 cm²
Characteristic mass : 0,001 g
tR (h:m:s)          0:10:30,0000
dER/dt (mV/h)       0,0
dER (mV)            0,00
dtR (s)             5,0000
E range min (V)     -10,000
E range max (V)     10,000

Number of loops : 1
Loop 0 from point number 0 to 126

mode	error	time/s	Ewe/V
3	0	1212,9682	1,9533608
3	0	1217,9682	1,67080772
3	0	1222,9682	1,66970146
3	0	1227,9682	1,66964424
3	0	1232,9682	1,67033088
3	0	1237,9682	1,671399
3	0	1242,9682	1,67260063
3	0	1247,9682	1,67378318
3	0	1252,9682	1,67528999
3	0	1257,9682	1,67662513
3	0	1262,9682	1,67763603
3	0	1267,9682	1,67902839
3	0	1272,9682	1,68061149
3	0	1277,9682	1,6823281
3	0	1282,9682	1,6837014
3	0	1287,9682	1,68507469
3	0	1292,9682	1,6861428
3	0	1297,9682	1,68700111
3	0	1302,9682	1,68791652
3	0	1307,9682	1,68860316
3	0	1312,9682	1,68908
3	0	1317,9682	1,68955684
3	0	1322,9682	1,69012904
3	0	1327,9682	1,69054866
3	0	1332,9682	1,6915977
3	0	1337,9682	1,69283748
3	0	1342,9682	1,6946876
3	0	1347,9682	1,69659495
3	0	1352,9682	1,69813991
3	0	1357,9682	1,69953227
3	0	1362,9682	1,70086741
3	0	1367,9682	1,70227885
3	0	1372,9682	1,70336604
3	0	1377,9682	1,70374751
3	0	1382,9682	1,70346141
3	0	1387,9682	1,7035377
3	0	1392,9682	1,70386195
3	0	1397,9682	1,70504451
3	0	1402,9682	1,70681834
3	0	1407,9682	1,70914519
3	0	1412,9682	1,71091902
3	0	1417,9682	1,7118727
3	0	1422,9682	1,71217787
3	0	1427,9682	1,71202528
3	0	1432,9682	1,71242583
3	0	1437,9682	1,71301711
3	0	1442,9682	1,71351302
3	0	1447,9682	1,71446669
3	0	1452,9682	1,71572554
3	0	1457,9682	1,71728957
3	0	1462,9682	1,71925414
3	0	1467,9682	1,72095168
3	0	1472,9682	1,72247756
3	0	1477,9682	1,72285903
3	0	1482,9682	1,72234404
3	0	1487,9682	1,72245848
3	0	1492,9682	1,7228018
3	0	1497,9682	1,72398436
3	0	1502,9682	1,72520506
3	0	1507,9682	1,72753203
3	0	1512,9682	1,72945833
3	0	1517,9682	1,73081255
3	0	1522,9682	1,73130846
3	0	1527,9682	1,73102236
3	0	1532,9682	1,73121309
3	0	1537,9682	1,7314229
3	0	1542,9682	1,73209047
3	0	1547,9682	1,73325396
3	0	1552,9682	1,73500872
3	0	1557,9682	1,73704958
3	0	1562,9682	1,73855639
3	0	1567,9682	1,73985338
3	0	1572,9682	1,7409215
3	0	1577,9682	1,74183702
3	0	1582,9682	1,74237108
3	0	1587,9682	1,74239016
3	0	1592,9682	1,74254274
3	0	1597,9682	1,74290514
3	0	1602,9682	1,74366808
3	0	1607,9682	1,74456453
3	0	1612,9682	1,7455945
3	0	1617,9682	1,74692965
3	0	1622,9682	1,74824572
3	0	1627,9682	1,74939001
3	0	1632,9682	1,75074422
3	0	1637,9682	1,75190771
3	0	1642,9682	1,75288045
3	0	1647,9682	1,75446355
3	0	1652,9682	1,7551502
3	0	1657,9682	1,75621831
3	0	1662,9682	1,75705755
3	0	1667,9682	1,75761068
3	0	1672,9682	1,75873601
3	0	1677,9682	1,75907934
3	0	1682,9682	1,75968969
3	0	1687,9682	1,76028097
3	0	1692,9682	1,76115835
3	0	1697,9682	1,76207387
3	0	1702,9682	1,7627033
3	0	1707,9682	1,76333272
3	0	1712,9682	1,76394308
3	0	1717,9682	1,76419103
3	0	1722,9682	1,76453435
3	0	1727,9682	1,76487768
3	0	1732,9682	1,76554525
3	0	1737,9682	1,76588857
3	0	1742,9682	1,76674688
3	0	1747,9682	1,76747167
3	0	1752,9682	1,76825368
3	0	1757,9682	1,76928365
3	0	1762,9682	1,77035165
3	0	1767,9682	1,77185845
3	0	1772,9682	1,77298379
3	0	1777,9682	1,7741282
3	0	1782,9682	1,77491021
3	0	1787,9682	1,77567315
3	0	1792,9682	1,77632165
3	0	1797,9682	1,77689385
3	0	1802,9682	1,77746606
3	0	1807,9682	1,77784753
3	0	1812,9682	1,77798104
3	0	1817,9682	1,77834344
3	0	1822,9682	1,77950692
3	0	1827,9682	1,78133798
3	0	1832,9682	1,78324533
3	0	1837,9682	1,7845614
3	0	1842,9682	1,785496