File: Experimentelles/Rohdaten/Batteriemessungen/AlteZelle/Studenten_Batterietests/S vs Li GCPL 200µm/ZView-Export/S vs Li GCPL 200µm_02_GCPL_C05_loop4.txt
EC-Lab ASCII FILE
Nb header lines : 3
mode	ox/red	error	control changes	Ns changes	counter inc.	Ns	time/s	control/V/mA	Ewe/V	dq/mA.h	<I>/mA	P/W	(Q-Qo)/mA.h	x	Capacity/mA.h
1	0	0	1	1	0	1	128164,15	-0,200000003	3,35372949	0	0	0	0	0	0
1	0	0	1	0	0	1	128244,15	-0,200000003	1,93673885	-0,00055479870191133677	-0,19972358557590864	0,000386812433	-0,0044356198701624358	0,00016549894111010342	0,0044356198701624358
1	0	0	1	0	0	1	128324,15	-0,200000003	1,90531325	-0,00055480079087283872	-0,19972433740118333	0,000380537414	-0,0088740024437719885	0,00033110096240031309	0,0088740024437719885
1	0	0	1	0	0	1	128404,15	-0,200000003	1,8803823	-0,0005547933836927017	-0,19972167094111046	0,000375553092	-0,013312380765941174	0,0004967028250635664	0,013312380765941174
1	0	0	1	0	0	1	128484,16	-0,200000003	1,84888041	-0,00055479607672906592	-0,19972264044323242	0,000369263289	-0,017750738446284269	0,00066230391755253517	0,017750738446284269
1	0	0	1	0	0	1	128564,16	-0,200000003	1,82198775	-0,00055478876753234202	-0,19972000905392355	0,000363887404	-0,022189059379882886	0,00082790363897106086	0,022189059379882886
1	0	0	1	0	0	1	128644,16	-0,200000003	1,78854311	-0,00055477728190935315	-0,1997158745647863	0,00035720045	-0,02662731932573577	0,00099350108485479437	0,02662731932573577
1	0	0	1	0	0	1	128724,16	-0,200000003	1,75519383	-0,00055477661368581984	-0,1997156336463761	0,00035053966	-0,031065591904433005	0,0011590990020869358	0,031065591904433005
1	0	0	1	0	0	1	128804,16	-0,200000003	1,73033905	-0,00055479297072854304	-0,19972152252805347	0,000345585955	-0,035503856960732672	0,0013246966386483101	0,035503856960732672
1	0	0	1	0	0	1	128884,16	-0,200000003	1,68893337	-0,00055479602554440499	-0,19972262167301402	0,000337318197	-0,039942191024972928	0,0014902968499887293	0,039942191024972928
1	0	0	1	0	0	1	128964,17	-0,200000003	1,64794683	-0,00055479194924483693	-0,19972115491278704	0,000329129834	-0,044380488864123584	0,0016558957097223507	0,044380488864123584
1	0	0	1	0	0	1	129044,17	-0,200000003	1,59633255	-0,00055478469650695712	-0,1997185432463767	0,000318817212	-0,048818801150031149	0,0018214951084838966	0,048818801150031149
1	0	0	1	0	0	1	129124,17	-0,200000003	1,54355657	-0,00055478378925141357	-0,19971821738483008	0,000308276358	-0,053257058979672448	0,0019870924754089309	0,053257058979672448
1	1	0	0	0	0	2	129189,41	0,200000003	2,45901346	0,00055613969909482528	0,20020633528248195	0,000492310093	-0,054654554378289907	0,002039234907683895	0,0011122801535369621
1	1	0	0	0	0	2	129269,41	0,200000003	2,46516514	0,00055613568724526298	0,20020489029937334	0,0004935381	-0,050205461690244339	0,001873233277624176	0,0055613728415825293
1	1	0	0	0	0	2	129349,41	0,200000003	2,41177964	0,00055613195167978605	0,20020354626585251	0,000482846837	-0,045756418860339226	0,0017072335078387117	0,010010415671487648
1	1	0	0	0	0	2	129429,41	0,200000003	2,41753149	0,00055613785232355194	0,20020566970982141	0,000484003511	-0,041307337336229549	0,0015412322943204506	0,014459497195597322
1	1	0	0	0	0	2	129509,42	0,200000003	2,36178446	0,00055613817761010592	0,20020578753083901	0,000472842919	-0,036858241804171533	0,0013752305581468029	0,018908592727655338
1	1	0	0	0	0	2	129589,42	0,200000003	2,37199306	0,00055613445882830362	0,20020444815258909	0,000474883564	-0,032409157999951571	0,0012092292595545616	0,023357676531875299
1	1	0	0	0	0	2	129669,42	0,200000003	2,36816478	0,00055613746978176966	0,20020553260580214	0,000474119704	-0,027960062170352147	0,0010432275122792437	0,02780677236147473
1	1	0	0	0	0	2	129749,42	0,200000003	2,37462139	0,00055614372706164922	0,2002077847508671	0,000475417677	-0,023510964763773581	0,00087722570616471411	0,032255869768053293
1	1	0	0	0	0	2	129829,42	0,200000003	2,37584019	0,00055613120199905491	0,20020327613441488	0,000475651002	-0,019061894605147942	0,00071122491670794342	0,03670493992667895
1	1	0	0	0	0	2	129909,42	0,200000003	2,38283014	0,00055613495336059066	0,20020462639511286	0,000477053632	-0,014612821680423885	0,00054522402404432173	0,041154012851403002
1	1	0	0	0	0	2	129989,43	0,200000003	2,40023804	0,00055613043781783846	0,20020300092041315	0,000480534858	-0,010163745288369328	0,00037922300200993709	0,045603089243457555
1	1	0	0	0	0	2	130069,43	0,200000003	2,39480996	0,00055613340942561626	0,20020407070137744	0,000479450711	-0,0057146904281052653	0,0002132227833556057	0,050052144103721626
1	1	0	0	0	0	2	130149,43	0,200000003	2,41147494	0,00055613314478844403	0,20020397531035462	0,000482786883	-0,0012656364255570077	4,7222596703804186E-005	0,054501198106269888
1	1	0	0	0	0	2	130229,43	0,200000003	2,40827537	0,00055612887652549478	0,200202439000288	0,000482142612	0,0031833903850352397	-0,00011877657537955861	0,058950224916862118
1	1	0	0	0	0	2	130309,43	0,200000003	2,39968562	0,00055613697308136358	0,20020535335902723	0,00048042991	0,0076324565742672102	-0,00028477721673291466	0,063399291106094106
1	1	0	0	0	0	2	130389,43	0,200000003	2,40288544	0,00055614023502833318	0,20020652809353757	0,000481073337	0,012081558802772126	-0,00045077920275999962	0,067848393334599027
1	1	0	0	0	0	2	130469,44	0,200000003	2,44690013	0,00055613708920362912	0,20020539505034534	0,000489882601	0,016530674957085216	-0,00061678170837771085	0,072297509488912128
1	1	0	0	0	0	2	130549,44	0,200000003	2,42048359	0,00055613985988414957	0,20020639314451885	0,000484596298	0,020979790833114154	-0,00078278420361226624	0,076746625364941082
1	1	0	0	0	0	2	130629,44	0,200000003	2,45987034	0,00055613814045488838	0,20020577343621766	0,000492480234	0,025428896422407098	-0,0009487863150348713	0,08119573095423401
1	1	0	0	0	0	2	130709,44	0,200000003	2,38669634	0,00055613358134279648	0,20020413293527344	0,000477826485	0,029877989096903373	-0,0011147879445890482	0,085644823628730291
1	1	0	0	0	0	2	130789,44	0,200000003	2,45707083	0,0005561339739014704	0,2002042735077991	0,000491916086	0,034327060823792614	-0,0012807887925598426	0,090093895355619533
1	1	0	0	0	0	2	130869,44	0,200000003	2,45766115	0,00055613461311161523	0,20020450436470813	0,000492034829	0,038776142306346272	-0,0014467900045275926	0,094542976838173158
1	1	0	0	0	0	2	130949,44	0,200000003	2,48301125	0,00055613018662730848	0,20020291011371802	0,000497106055	0,043225212767752742	-0,0016127908052815235	0,098992047299579635
1	1	0	0	0	0	2	131029,45	0,200000003	2,51072288	0,00055613879513906112	0,20020600986250698	0,000502661802	0,047674314539320173	-0,0017787927742596563	0,10344114907114707
1	1	0	0	0	0	2	131109,45	0,200000003	2,53072095	0,00055612669757919181	0,20020557980390509	0,000506664452	0,052123376685772749	-0,0019447932647714778	0,10789021121759963
1	1	0	0	0	0	2	131189,45	0,200000003	2,59035349	0,00055613632016794547	0,2002090439353144	0,000518612214	0,056572424113795405	-0,0021107932061188896	0,11233925864562227
1	1	0	0	0	0	2	131269,45	0,200000003	2,95687127	0,00055612900510595898	0,2002064105134113	0,000591984601	0,061021482384534579	-0,0022767935520226326	0,11678831691636147
1	1	0	0	0	0	2	131349,45	0,200000003	2,84263444	0,00055613391386634784	0,20020817766687475	0,000569118652	0,065470515949663411	-0,0024427929761268371	0,12123735048149027
1	1	0	0	0	0	2	131429,45	0,200000003	2,67973542	0,00055612594068961005	0,2002053073236983	0,000536497275	0,069919553363635546	-0,00260879254383656	0,12568638789546242
1	1	0	0	0	0	2	131509,45	0,200000003	2,54233885	0,00055612154466493254	0,20020372475506202	0,000508985715	0,074368531180522739	-0,0027747898878989142	0,13013536571234965
1	1	0	0	0	0	2	131589,45	0,200000003	2,46604133	0,00055612634719825466	0,20020545366678742	0,000493714935	0,078817555975189875	-0,0029407889847654003	0,13458439050701678
1	1	0	0	0	0	2	131669,45	0,200000003	2,41145587	0,00055612397751543245	0,20020460058110496	0,000482784555	0,083266572605365094	-0,0031067877770037165	0,13903340713719203
1	1	0	0	0	0	2	131749,45	0,200000003	2,5533855	0,00055612489172899066	0,20020492969793437	0,000511200342	0,087715590807352845	-0,003272786627888471	0,14348242533917982
1	1	0	0	0	0	2	131829,45	0,200000003	2,45390916	0,00055612526513967245	0,20020506412575882	0,000491285056	0,092164587761312128	-0,0034387846859807155	0,1479314222931391
1	1	0	0	0	0	2	131909,45	0,200000003	2,51504612	0,00055611743234263526	0,20020224431926662	0,000503517862	0,09661356244124	-0,0036047819129988998	0,15238039697306691
1	1	0	0	0	0	2	131989,45	0,200000003	2,47028852	0,00055612409572800006	0,20020464313762259	0,000494563254	0,1010625306627753	-0,0037707788990457741	0,15682936519460214
1	1	0	0	0	0	2	132069,45	0,200000003	2,51062751	0,00055612354879991885	0,20020444624354416	0,00050263881	0,10551151954091861	-0,0039367766558184659	0,16127835407274547
1	1	0	0	0	0	2	132149,45	0,200000003	2,59913349	0,00055612109676831302	0,20020356351230419	0,000520355767	0,10996048483332022	-0,0041027735325754246	0,1657273193651471
1	1	0	0	0	0	2	132229,45	0,200000003	2,71763659	0,00055612104243785146	0,20020354395334109	0,000544080453	0,11440945240466482	-0,004268770494362809	0,17017628693649174
1	1	0	0	0	0	2	132309,45	0,200000003	2,77128887	0,0005561122343614697	0,20020037304633978	0,000554813072	0,11885837798611592	-0,0044347658894508122	0,17462521251794282
1	1	0	0	0	0	2	132389,45	0,200000003	3,19993424	0,00055612449452032646	0,20020478670283763	0,000640642131	0,12330736081883746	-0,0046007634206606893	0,17907419535066435
1	1	0	0	0	0	2	132469,45	0,200000003	3,31725645	0,00055611850366989766	0,2002026299970207	0,00066412345	0,12775629850903838	-0,0047667592675424288	0,18352313304086525
1	1	0	0	0	0	2	132549,45	0,200000003	3,47547007	0,00055611782205849882	0,20020238461695552	0,000695797382	0,13220524972245538	-0,0049327556189935411	0,18797208425428224
1	1	0	0	0	0	2	132556,02	0,200000003	3,50011539	0,00036564958232144512	0,20020354229168611	0,000700735487	0,1325708993047768	-0,0049463984965310458	0,18833773383660368