File: Experimentelles/Rohdaten/Batteriemessungen/AlteZelle/Studenten_Batterietests/S vs Li GCPL 200µm/ZView-Export/S vs Li GCPL 200µm_02_GCPL_C05_loop3.txt
EC-Lab ASCII FILE
Nb header lines : 3
mode	ox/red	error	control changes	Ns changes	counter inc.	Ns	time/s	control/V/mA	Ewe/V	dq/mA.h	<I>/mA	P/W	(Q-Qo)/mA.h	x	Capacity/mA.h
1	0	0	1	1	0	1	120443,69	-0,200000003	3,42136121	0	0	0	0	0	0
1	0	0	1	0	0	1	120583,69	-0,200000003	2,03013968	-0,00055479209812316627	-0,19972120811034893	0,000405461964	-0,0077643326561818944	0,00028969769065842944	0,0077643326561818944
1	0	0	1	0	0	1	120723,69	-0,200000003	2,0121603	-0,00055479504040628678	-0,19972226771821843	0,000401873229	-0,015531409630107757	0,00057949777550166067	0,015531409630107757
1	0	0	1	0	0	1	120863,70	-0,200000003	1,9975903	-0,00055479082407140077	-0,19972074912481402	0,000398960226	-0,02329849679370096	0,0008692982405350807	0,02329849679370096
1	0	0	1	0	0	1	121003,70	-0,200000003	1,98709607	-0,00055479709428879955	-0,19972300689903354	0,000396868796	-0,031065576651141421	0,0011590984329661187	0,031065576651141421
1	0	0	1	0	0	1	121143,70	-0,200000003	1,97414482	-0,00055481663939522368	-0,19973004320057987	0,000394296017	-0,038832817186422195	0,0014489046205034122	0,038832817186422195
1	0	0	1	0	0	1	121283,70	-0,200000003	1,97913492	-0,00055479789870232352	-0,19972329594044512	0,000395279349	-0,046599998370930093	0,0017387085935835718	0,046599998370930093
1	0	0	1	0	0	1	121423,71	-0,200000003	1,96709788	-0,00055479427654792858	-0,19972199273696864	0,000392872695	-0,054367176018138272	0,0020285124346823229	0,054367176018138272
1	0	0	1	0	0	1	121563,71	-0,200000003	1,94788063	-0,00055479602214528448	-0,19972262096987123	0,00038903582	-0,062134316845248512	0,0023183149019737149	0,062134316845248512
1	0	0	1	0	0	1	121703,71	-0,200000003	1,92500663	-0,00055479630234671955	-0,19972272126611136	0,000384467567	-0,069901537871969613	0,0026081203616204173	0,069901537871969613
1	0	0	1	0	0	1	121843,72	-0,200000003	1,91171265	-0,00055480831345998579	-0,19972704592545027	0,000381820719	-0,07766876901334313	0,0028979261986584013	0,07766876901334313
1	0	0	1	0	0	1	121983,72	-0,200000003	1,89853287	-0,00055480529214358995	-0,1997259578894049	0,000379186298	-0,085435997519361011	0,0031877319373677229	0,085435997519361011
1	0	0	1	0	0	1	122123,72	-0,200000003	1,86807859	-0,00055480552129364685	-0,19972604002140899	0,000373103947	-0,093203255694060237	0,0034775387830554355	0,093203255694060237
1	0	0	1	0	0	1	122263,72	-0,200000003	1,84684253	-0,00055479843646867418	-0,19972349027884326	0,000368857844	-0,10097055705022763	0,003767347239901783	0,10097055705022763
1	0	0	1	0	0	1	122403,73	-0,200000003	1,81935942	-0,00055481690590414733	-0,1997301385655576	0,00036338091	-0,10873789751218211	0,0040571571558376262	0,10873789751218211
1	0	0	1	0	0	1	122543,73	-0,200000003	1,79084766	-0,00055479625300897498	-0,1997227035048744	0,00035767295	-0,11650510088536346	0,004346961956807024	0,11650510088536346
1	0	0	1	0	0	1	122683,73	-0,200000003	1,76165044	-0,00055479150450229651	-0,19972099482026147	0,000351838593	-0,12427224244389059	0,0046367644513885645	0,12427224244389059
1	0	0	1	0	0	1	122823,74	-0,200000003	1,73411012	-0,00055480020871096186	-0,19972412752769962	0,000346343644	-0,13203935017141571	0,0049265656836899328	0,13203935017141571
1	0	0	1	0	0	1	122963,74	-0,200000003	1,69304729	-0,00055479514117373357	-0,19972230343810083	0,000338139303	-0,1398065057990853	0,0052163687032100934	0,1398065057990853
1	0	0	1	0	0	1	123103,74	-0,200000003	1,64449954	-0,00055478360431061843	-0,19971815080513456	0,000328436407	-0,14757359071341942	0,005506169084320633	0,14757359071341942
1	0	0	1	0	0	1	123243,74	-0,200000003	1,5822196	-0,0005548007236114807	-0,19972431288880394	0,000316007732	-0,15534073870782758	0,0057959718190335475	0,15534073870782758
1	0	0	1	0	0	1	123383,75	-0,200000003	1,52521551	-0,00055479302149183226	-0,19972154055834944	0,000304618385	-0,16310794525699194	0,0060857767385031411	0,16310794525699194
1	1	0	0	0	0	2	123510,67	0,200000003	2,29055309	0,0005561330039906832	0,20020392434681696	0,000458577706	-0,16348372562646163	0,0060997976093301363	0,0033367734354270822
1	1	0	0	0	0	2	123650,67	0,200000003	2,33131123	0,00055613199569036563	0,20020356154999686	0,000466736819	-0,15569789828126589	0,0058092979229246835	0,011122600780622826
1	1	0	0	0	0	2	123790,67	0,200000003	2,29266715	0,00055614168074147571	0,20020704865884794	0,000459008123	-0,14791197206768026	0,0055187945476066739	0,018908526994208499
1	1	0	0	0	0	2	123930,68	0,200000003	2,29302907	0,00055613093744135558	0,2002031804037633	0,000459071714	-0,14012610632095534	0,0052282934283885363	0,026694392740933434
1	1	0	0	0	0	2	124070,68	0,200000003	2,29864764	0,0005561463300428457	0,20020872202000099	0,000460209296	-0,13234018587959358	0,0049377902684399616	0,034480313182295206
1	1	0	0	0	0	2	124210,68	0,200000003	2,30407548	0,00055614106776399744	0,20020682799131654	0,000461291638	-0,12455421147928517	0,0046472850952105357	0,042266287582603597
1	1	0	0	0	0	2	124350,68	0,200000003	2,30914187	0,0005561272404607799	0,20020184951706138	0,000462294469	-0,11676829962082915	0,0043567822555017133	0,050052199441059603
1	1	0	0	0	0	2	124490,69	0,200000003	2,30910373	0,00055613573976523347	0,20020490980982627	0,000462293916	-0,10898240176116472	0,0040662799381066259	0,057838097300724045
1	1	0	0	0	0	2	124630,69	0,200000003	2,31961703	0,00055613170967830547	0,20020345912140419	0,000464395358	-0,10119656553878349	0,003775779920481447	0,06562393352310528
1	1	0	0	0	0	2	124770,69	0,200000003	2,31872177	0,0005561381382387545	0,20020577263959056	0,000464221492	-0,093410682249606093	0,0034852781467308211	0,073409816812282662
1	1	0	0	0	0	2	124910,70	0,200000003	2,32548308	0,00055613268185489709	0,20020380912398931	0,000465570571	-0,085624793920273997	0,0031947761849252474	0,081195705141614758
1	1	0	0	0	0	2	125050,70	0,200000003	2,30849433	0,00055613693329277971	0,20020533938967901	0,000462172902	-0,077838863699069888	0,0029042726600776038	0,088981635362818867
1	1	0	0	0	0	2	125190,70	0,200000003	2,33515835	0,00055613934404154624	0,20020620672001584	0,000467513193	-0,070052982048819917	0,0026137709474775638	0,096767517013068838
1	1	0	0	0	0	2	125330,70	0,200000003	2,37963033	0,00055613776508056461	0,20020563904935872	0,000476415415	-0,062267045947133312	0,0023232672032212125	0,10455345311475544
1	1	0	0	0	0	2	125470,71	0,200000003	2,29438138	0,00055613666724744768	0,20020524340083251	0,000459347182	-0,054481119644314522	0,0020327638245737936	0,11233937941757424
1	1	0	0	0	0	2	125610,71	0,200000003	2,30359936	0,00055613177066544698	0,20020348035617683	0,000461188611	-0,046695253495890688	0,0017422626903677293	0,12012524556599803
1	1	0	0	0	0	2	125750,71	0,200000003	2,31287479	0,00055612904165519616	0,20020249867886746	0,00046304331	-0,038909397026670938	0,001451761917305783	0,12791110203521778
1	1	0	0	0	0	2	125890,71	0,200000003	2,33763433	0,00055613381292836538	0,20020421566117472	0,000468004233	-0,031123479035800147	0,00116125884878832	0,13569702002608854
1	1	0	0	0	0	2	126030,72	0,200000003	2,31192255	0,00055614159379237229	0,2002070166492655	0,000462863129	-0,023337496029071958	0,00087075335444180224	0,14348300303281669
1	1	0	0	0	0	2	126170,72	0,200000003	2,30436134	0,00055613836653944512	0,2002058555696943	0,000461346644	-0,015551558296671789	0,00058024954934133517	0,15126894076521686
1	1	0	0	0	0	2	126310,72	0,200000003	2,3125701	0,00055613267346388774	0,20020380535952237	0,000462985336	-0,0077656497174257523	0,00028974683198424538	0,15905484934446288
1	1	0	0	0	0	2	126450,73	0,200000003	2,31150341	0,0005561339755853017	0,20020427435402211	0,000462772849	2,0299908943028688E-005	-7,5741689618225446E-007	0,16684079897083162
1	1	0	0	0	0	2	126590,73	0,200000003	2,31938839	0,00055612233872049389	0,2002000856712248	0,000464341749	0,0078060847816388326	-0,0002912555185955575	0,17462658384352746
1	1	0	0	0	0	2	126730,73	0,200000003	2,31816959	0,00055613042361123699	0,20020299542857664	0,000464104494	0,015591891022624621	-0,00058175441757456205	0,18241239008451328
1	1	0	0	0	0	2	126870,73	0,200000003	2,32437849	0,0005561378163736727	0,20020565721560634	0,000465353718	0,023377769431207296	-0,00087225600922363674	0,19019826849309597
1	1	0	0	0	0	2	127010,74	0,200000003	2,33601546	0,00055612378726402912	0,20020060713659248	0,000467671722	0,03116357136466144	-0,0011627547474828438	0,19798407042655014
1	1	0	0	0	0	2	127150,74	0,200000003	2,37275481	0,00055612288425945574	0,20020028131558067	0,000475026172	0,038949349579319731	-0,0014532526007618877	0,20576984864120851
1	1	0	0	0	0	2	127290,74	0,200000003	2,37871623	0,00055613760734928973	0,20020558217370445	0,000476232264	0,04673524666726544	-0,001743754889363112	0,21355574572915421
1	1	0	0	0	0	2	127430,75	0,200000003	2,36195588	0,00055613486570616563	0,20020459522236877	0,00047287441	0,054521119858446598	-0,0020342562863439213	0,22134161892033533
1	1	0	0	0	0	2	127570,75	0,200000003	2,38844872	0,00055612789386345286	0,20020208473737443	0,000478172413	0,062306962260360064	-0,0023247565345357562	0,22912746132224877
1	1	0	0	0	0	2	127710,75	0,200000003	2,36801243	0,00055613189677645766	0,20020352650104486	0,000474084431	0,070092836737090867	-0,0026152579794821514	0,23691333579897958
1	1	0	0	0	0	2	127850,75	0,200000003	2,44328165	0,00055613002638684384	0,20020285288742339	0,000489151978	0,077878656455504755	-0,0029057573813221184	0,2446991555173935
1	1	0	0	0	0	2	127990,76	0,200000003	2,53298736	0,00055612742092377613	0,20020191448012534	0,000507108925	0,085664500307004019	-0,0031962576835999494	0,25248499936889274
1	1	0	0	0	0	2	128130,76	0,200000003	3,36344266	0,00055613151261376013	0,20020338820520672	0,00067337259	0,093450350553644582	-0,0034867582244890989	0,26027084961553338
1	1	0	0	0	0	2	128164,10	0,200000003	3,50019169	0,00018573444361819162	0,20020484933247555	0,000700755336	0,095304476962016243	-0,0035559381736849152	0,26212497602390499