File: Experimentelles/Rohdaten/Batteriemessungen/AlteZelle/Studenten_Batterietests/S vs Li GCPL 200µm/ZView-Export/S vs Li GCPL 200µm_01_OCV_C05.txt
EC-Lab ASCII FILE
Nb header lines : 48

Open Circuit Voltage

Run on channel : 5 (SN 5436)
Grouped channel(s) : 5
User :
CE vs. WE compliance from -10 V to 10 V
Electrode connection : standard
Ewe ctrl range : min = 0,00 V, max = 5,00 V
Acquisition started on : 01.23.2015 15:07:20
Saved on :
	File : S vs Li GCPL 200µm_01_OCV_C05.mpr
	Directory : C:\Hupfer\Studenten Batterietests\S vs Li GCPL 200µm\
	Host : 192.168.0.2
Device : VMP3 (SN 0324)
Address : 192.168.0.1
EC-Lab for windows v10.33 (software)
Internet server v10.33 (firmware)
Command interpretor v10.32 (firmware)
Electrode material : S vs Li
Initial state : charged
Electrolyte : LP30
Comments : 200µm
Mass of active material : 0,001 mg
 at x = 0,000
Molecular weight of active material (at x = 0) : 0,001 g/mol
Atomic weight of intercalated ion : 0,001 g/mol
Acquisition started at : xo = 0,000
Number of e- transfered per intercalated ion : 1
for DX = 1, DQ = 26,801 mA.h
Battery capacity : 0,000 A.h
Reference electrode : Li+/Li (-3,020 V)
Electrode surface area : 0,001 cm²
Characteristic mass : 0,001 g
Create one data file per loop
tR (h:m:s)          1:00:0,0000
dER/dt (mV/h)       0,0
dER (mV)            0,00
dtR (s)             5,0000
E range min (V)     0,000
E range max (V)     5,000

Number of loops : 1
Loop 0 from point number 0 to 720

mode	error	time/s	Ewe/V
3	1	0,0000	2,18191576
3	0	15,0000	2,18029666
3	0	30,0000	2,18083
3	0	45,0000	2,1813252
3	0	60,0000	2,18048716
3	0	75,0000	2,18460107
3	0	90,0000	2,18191576
3	0	105,0000	2,18046808
3	0	120,0000	2,17959213
3	0	135,0000	2,17949677
3	0	150,0000	2,17905879
3	0	165,0000	2,17888737
3	0	180,0000	2,17844939
3	0	195,0000	2,17877316
3	0	210,0000	2,18003011
3	0	225,0000	2,18001103
3	0	240,0000	2,17961121
3	0	255,0000	2,17892551
3	0	270,0000	2,17883015
3	0	285,0000	2,18043017
3	0	300,0000	2,17820168
3	0	315,0000	2,1780684
3	0	330,0000	2,17726851
3	0	345,0000	2,17702079
3	0	360,0000	2,17703986
3	0	375,0000	2,17719221
3	0	390,0000	2,17677331
3	0	405,0000	2,17637324
3	0	420,0000	2,17660189
3	0	435,0000	2,17665911
3	0	450,0000	2,17412591
3	0	465,0000	2,17635417
3	0	480,0000	2,17524958
3	0	495,0000	2,17574477
3	0	510,0000	2,17850637
3	0	525,0000	2,17662096
3	0	540,0000	2,17865872
3	0	555,0000	2,1771543
3	0	570,0000	2,1771543
3	0	585,0000	2,18023968
3	0	600,0000	2,18077302
3	0	615,0000	2,18027782
3	0	630,0000	2,17974448
3	0	645,0000	2,17938256
3	0	660,0000	2,17943978
3	0	675,0000	2,17921114
3	0	690,0000	2,17917299
3	0	705,0000	2,17879224
3	0	720,0000	2,1789825
3	0	735,0000	2,1778779
3	0	750,0000	2,17841125
3	0	765,0000	2,17673516
3	0	780,0000	2,17355442
3	0	795,0000	2,17250705
3	0	810,0000	2,1757257
3	0	825,0000	2,17610669
3	0	840,0000	2,17677331
3	0	855,0000	2,17286897
3	0	870,0000	2,1718595
3	0	885,0000	2,17315459
3	0	900,0000	2,17424011
3	0	915,0000	2,17639232
3	0	930,0000	2,17968726
3	0	945,0000	2,18027782
3	0	960,0000	2,19631433
3	0	975,0000	2,20229459
3	0	990,0000	2,20237088
3	0	1005,0000	2,20480871
3	0	1020,0000	2,20391369
3	0	1035,0000	2,20288515
3	0	1050,0000	2,20202804
3	0	1065,0000	2,20160913
3	0	1080,0000	2,202847
3	0	1095,0000	2,20444679
3	0	1110,0000	2,20507526
3	0	1125,0000	2,20429444
3	0	1140,0000	2,20459914
3	0	1155,0000	2,20499921
3	0	1170,0000	2,2059896
3	0	1185,0000	2,20326614
3	0	1200,0000	2,20269465
3	0	1215,0000	2,20269465
3	0	1230,0000	2,20829415
3	0	1245,0000	2,20244718
3	0	1260,0000	2,20301843
3	0	1275,0000	2,20347548
3	0	1290,0000	2,20393252
3	0	1305,0000	2,20753241
3	0	1320,0000	2,20494199
3	0	1335,0000	2,20848465
3	0	1350,0000	2,20259953
3	0	1365,0000	2,20383739
3	0	1380,0000	2,20389462
3	0	1395,0000	2,20452309
3	0	1410,0000	2,20478964
3	0	1425,0000	2,20402789
3	0	1440,0000	2,20351362
3	0	1455,0000	2,20459914
3	0	1470,0000	2,20381832
3	0	1485,0000	2,20166612
3	0	1500,0000	2,20299935
3	0	1515,0000	2,20842743
3	0	1530,0000	2,20498013
3	0	1545,0000	2,2054944
3	0	1560,0000	2,20473266
3	0	1575,0000	2,20543718
3	0	1590,0000	2,20475149
3	0	1605,0000	2,20555162
3	0	1620,0000	2,20534205
3	0	1635,0000	2,20665622
3	0	1650,0000	2,20798945
3	0	1665,0000	2,21202707
3	0	1680,0000	2,20856071
3	0	1695,0000	2,20589447
3	0	1710,0000	2,20398974
3	0	1725,0000	2,20358992
3	0	1740,0000	2,20317078
3	0	1755,0000	2,20307565
3	0	1770,0000	2,20238996
3	0	1785,0000	2,20216131
3	0	1800,0000	2,20235181
3	0	1815,0000	2,20092344
3	0	1830,0000	2,20117092
3	0	1845,0000	2,20139956
3	0	1860,0000	2,20073295
3	0	1875,0000	2,20096159
3	0	1890,0000	2,20170426
3	0	1905,0000	2,20193291
3	0	1920,0000	2,20250416
3	0	1935,0000	2,20216131
3	0	1950,0000	2,20042825
3	0	1965,0000	2,20092344
3	0	1979,9999	2,20033288
3	0	1994,9999	2,20033288
3	0	2009,9999	2,20136142
3	0	2024,9999	2,20143771
3	0	2039,9999	2,2030375
3	0	2054,9999	2,2031517
3	0	2069,9999	2,20343733
3	0	2084,9999	2,20625615
3	0	2099,9999	2,2118175
3	0	2114,9999	2,2104845
3	0	2129,9999	2,21716952
3	0	2144,9999	2,20899892
3	0	2159,9999	2,20471358
3	0	2174,9999	2,20256138
3	0	2189,9999	2,20625615
3	0	2204,9999	2,21012259
3	0	2219,9999	2,21223664
3	0	2234,9999	2,21164608
3	0	2249,9999	2,20743704
3	0	2264,9999	2,20566583
3	0	2279,9999	2,20591331
3	0	2294,9999	2,20513248
3	0	2309,9999	2,20440888
3	0	2324,9999	2,20393252
3	0	2339,9999	2,20827508
3	0	2354,9999	2,20856071
3	0	2369,9999	2,21044636
3	0	2384,9999	2,20888448
3	0	2399,9999	2,20823693
3	0	2414,9999	2,20816088
3	0	2429,9999	2,20736098
3	0	2444,9999	2,20808458
3	0	2459,9999	2,22132158
3	0	2474,9999	2,22040725
3	0	2489,9999	2,21880746
3	0	2504,9999	2,21939778
3	0	2519,9999	2,219455
3	0	2534,9999	2,22495914
3	0	2549,9999	2,21176052
3	0	2564,9999	2,21122718
3	0	2579,9999	2,21155095
3	0	2594,9999	2,2104845
3	0	2609,9999	2,21136045
3	0	2624,9999	2,21214128
3	0	2639,9999	2,21383643
3	0	2654,9999	2,21358895
3	0	2669,9999	2,21339846
3	0	2684,9999	2,21713138
3	0	2699,9999	2,21488404
3	0	2714,9999	2,21197009
3	0	2729,9999	2,21212244
3	0	2744,9999	2,2118175
3	0	2759,9999	2,21379828
3	0	2774,9999	2,21490312
3	0	2789,9999	2,21379828
3	0	2804,9999	2,18978167
3	0	2819,9999	2,19665718
3	0	2834,9999	2,19800949
3	0	2849,9999	2,19646668
3	0	2864,9999	2,19355273
3	0	2879,9999	2,19532394
3	0	2894,9999	2,19604754
3	0	2909,9999	2,19667625
3	0	2924,9999	2,19604754
3	0	2939,9999	2,19970441
3	0	2954,9999	2,20096159
3	0	2969,9999	2,20029497
3	0	2984,9999	2,20357084
3	0	2999,9999	2,2061038
3	0	3014,9999	2,20663714
3	0	3029,9999	2,20389462
3	0	3044,9999	2,20440888
3	0	3059,9999	2,20509434
3	0	3074,9999	2,20541811
3	0	3089,9999	2,2080276
3	0	3104,9999	2,20002818
3	0	3119,9999	2,1999712
3	0	3134,9999	2,19846654
3	0	3149,9999	2,19303846
3	0	3164,9999	2,19336224
3	0	3179,9999	2,18812466
3	0	3194,9999	2,18231559
3	0	3209,9999	2,18328691
3	0	3224,9999	2,18410587
3	0	3239,9999	2,18296313
3	0	3254,9999	2,18239188
3	0	3269,9999	2,18313456
3	0	3284,9999	2,18155384
3	0	3299,9999	2,18187761
3	0	3314,9999	2,18296313
3	0	3329,9999	2,18098235
3	0	3344,9999	2,18033481
3	0	3359,9999	2,18050623
3	0	3374,9999	2,18079185
3	0	3389,9999	2,17873502
3	0	3404,9999	2,17909694
3	0	3419,9999	2,18111563
3	0	3434,9999	2,17980146
3	0	3449,9999	2,17875409
3	0	3464,9999	2,17843032
3	0	3479,9999	2,18315363
3	0	3494,9999	2,18762946
3	0	3509,9999	2,18778181
3	0	3524,9999	2,18307734
3	0	3539,9999	2,18296313
3	0	3554,9999	2,17995405
3	0	3569,9999	2,18382025
3	0	3584,9999	2,18185854
3	0	3599,9999	2,17934442