File: Experimentelles/Rohdaten/Batteriemessungen/AlteZelle/150511_LLTO_LTO_Tests/ECLab-Export/LLTO_LP30_LTO_02_CV_C01_loop10.mpt
EC-Lab ASCII FILE
Nb header lines : 3
mode	ox/red	error	control changes	counter inc.	time/s	control/V	Ewe/V	<I>/mA	cycle number	(Q-Qo)/C	P/W
2	1	0	1	0	8458,29	0,274492115	0,274808347	-0,74632894992828365	11	0	0,000205097429
2	1	0	0	0	8465,42	0,345797509	0,346142858	-0,092258326243609306	11	-0,00207088748	3,193456E-005
2	1	0	1	0	8472,65	0,418103009	0,418730497	0,0044363980899409792	11	-0,00229522074	1,85765521E-006
2	1	0	0	0	8479,84	0,490008503	0,490516126	0,030019477077682189	11	-0,00215816591	1,47250375E-005
2	1	0	0	0	8486,99	0,561513245	0,561849952	0,046225676982312947	11	-0,0018803787	2,59718945E-005
2	1	0	1	0	8494,14	0,633019447	0,633275449	0,062555925202711142	11	-0,00148822332	3,96151299E-005
2	1	0	0	0	8501,30	0,704524934	0,704820573	0,079358893427221798	11	-0,000976783456	5,59337823E-005
2	1	0	1	0	8508,45	0,776030421	0,77648592	0,091813633839289203	11	-0,000358047138	7,12919937E-005
2	1	0	1	0	8515,60	0,847535849	0,848061025	0,097314634496190707	11	0,000323765678	8,25287498E-005
2	1	0	0	0	8522,73	0,918841243	0,91943568	0,098974752433908186	11	0,00102792657	9,10009185E-005
2	1	0	1	0	8529,88	0,99034667	0,99077028	0,09935618688662839	11	0,00173964375	9,8439159E-005
2	1	0	0	0	8537,03	1,0618521	1,0622853	0,1007735386956483	11	0,00245815748	0,000107050248
2	1	0	0	0	8544,18	1,13335752	1,13375008	0,10353272815700621	11	0,00319225155	0,000117380237
2	1	0	1	0	8551,33	1,20486307	1,20540547	0,10617286436414952	11	0,00394436205	0,000127981359
2	1	0	0	0	8558,48	1,27636874	1,2768904	0,10911760421004163	11	0,00471770903	0,000139331227
2	1	0	1	0	8565,63	1,34787393	1,34821486	0,11017851632398845	11	0,00550672365	0,000148544306
2	1	0	1	0	8572,78	1,41937935	1,41988039	0,10981020063627466	11	0,00629778253	0,000155917354
2	1	0	0	0	8579,93	1,49088502	1,49133515	0,1103417830308897	11	0,00708741508	0,000164556579
2	1	0	1	0	8587,08	1,56239057	1,56290019	0,11348584709533814	11	0,00788836181	0,000177367052
2	1	0	0	0	8594,23	1,63389564	1,63426483	0,12148960349926098	11	0,00872995798	0,000198546186
2	1	0	0	0	8601,38	1,7054013	1,70574987	0,13188915296147275	11	0,00963770691	0,000224969903
2	1	0	1	0	8608,53	1,77690685	1,77753544	0,14267192264863526	11	0,0106218923	0,000253604405
2	1	0	0	0	8615,68	1,84841228	1,84910071	0,15351378397705638	11	0,0116840554	0,000283862435
2	1	0	0	0	8622,84	1,91991746	1,92058468	0,16393386944831923	11	0,0128223393	0,000314848876
2	1	0	1	0	8629,99	1,99142313	1,99198031	0,17372536581630582	11	0,0140337115	0,000346057495
2	1	0	0	0	8637,14	2,06292868	2,06368566	0,18296800134703562	11	0,015313399	0,00037758844
2	1	0	1	0	8644,29	2,13443398	2,1350503	0,19191555306315379	11	0,01665668	0,000409749366
2	1	0	1	0	8651,44	2,20593953	2,20637488	0,19961590187934509	11	0,0180598665	0,00044042751
2	1	0	0	0	8658,59	2,27744484	2,27784991	0,20659572553510496	11	0,0195176136	0,000470594066
2	1	0	1	0	8665,74	2,34895039	2,34952521	0,21485209123541882	11	0,0210281238	0,00050480041
2	1	0	0	0	8672,89	2,42045593	2,42093968	0,2227286954876031	11	0,0225954149	0,00053921272
2	1	0	0	0	8680,04	2,49196124	2,49258518	0,23121140004756579	11	0,0242215227	0,000576314109
2	1	0	1	0	8687,19	2,56346679	2,56412029	0,23980311102544282	11	0,0259078946	0,000614884018
2	1	0	0	0	8694,34	2,63497233	2,63566542	0,24836773712498416	11	0,0276570078	0,000654614239
2	1	0	1	0	8701,49	2,70647764	2,70719028	0,2568367220616592	11	0,0294681508	0,000695305876
2	1	0	1	0	8708,64	2,77798319	2,77859521	0,26801655162125827	11	0,0313457362	0,000744709512
2	1	0	0	0	8715,79	2,84948874	2,85042095	0,28501337704559155	11	0,0333237201	0,000812408107
2	1	0	1	0	8722,94	2,92099428	2,92135453	0,30444547029522483	11	0,0354322158	0,000889393152
2	1	0	0	0	8730,09	2,99249959	2,99315023	0,3300446309925369	11	0,0377008393	0,00098787318
2	1	0	0	0	8737,24	3,06400514	3,06482553	0,36131386055300666	11	0,0401721895	0,00110736396
2	1	0	1	0	8744,39	3,13551044	3,13609982	0,39924923842772666	11	0,0428913608	0,00125208544
2	1	0	0	0	8751,55	3,20701599	3,20757461	0,44486300135031251	11	0,0459100828	0,00142693124
2	1	0	1	0	8758,70	3,27852178	3,27919936	0,49738324700207315	11	0,0492761731	0,00163101882
2	1	0	1	0	8765,85	3,35002685	3,35051441	0,56256931181997152	11	0,0530606695	0,00188489654
2	1	0	0	0	8773,00	3,42153215	3,42216992	0,64224527031183066	11	0,0573631153	0,00219787238
2	1	0	1	0	8780,15	3,4930377	3,49353456	0,73184643670295552	11	0,0622751564	0,00255673076
2	1	0	1	0	8787,30	3,56454325	3,56544042	0,83258000148932429	11	0,0678651705	0,00296851434
2	1	0	0	0	8794,45	3,63604856	3,6366148	0,93503269925713536	11	0,0741945878	0,00340035371
2	1	0	1	0	8801,64	3,70795417	3,70895147	1,024213094264267	11	0,0812497735	0,00379875675
2	1	0	0	0	8808,79	3,77945971	3,78012562	1,1060923005764672	11	0,0888699889	0,00418116804
2	1	0	1	0	8815,94	3,85096598	3,8518219	1,1876824897383126	11	0,0970729366	0,00457474124
2	1	0	1	0	8823,09	3,92247057	3,92334628	1,274084933723013	11	0,105871961	0,00499867648
2	1	0	0	0	8830,24	3,99397612	3,99475121	1,3760158782824874	11	0,115336798	0,00549684092
2	1	0	1	0	8837,39	4,06548166	4,06628656	1,4942659245183059	11	0,125594795	0,00607611332
2	1	0	1	0	8844,54	4,13698721	4,13781929	1,6224778538367488	11	0,136730164	0,00671352027
2	0	0	0	1	8851,62	4,19219112	4,19311619	1,6119003730515581	11	0,148713171	0,00675888546
2	0	0	1	1	8858,77	4,12068558	4,12141085	0,80726132635027174	11	0,156994984	0,0033270556
2	0	0	0	1	8865,96	4,04877996	4,04938459	0,4025757435398791	11	0,161183417	0,00163018401
2	0	0	1	1	8873,11	3,97727489	3,97783995	0,19144809579787104	11	0,163225591	0,000761549862
2	0	0	1	1	8880,27	3,90576887	3,90628338	0,073902808985173875	11	0,164132327	0,000288685318
2	0	0	0	1	8887,50	3,83346367	3,83418822	0,0027844344513141549	11	0,164387032	1,06760453E-005
2	0	0	1	1	8894,69	3,76155853	3,76203156	-0,043042783431398387	11	0,164230675	0,000161928314
2	0	0	0	1	8901,84	3,69005299	3,69085741	-0,076600475003943066	11	0,163795441	0,000282721419
2	0	0	0	1	8909,03	3,61814642	3,61898923	-0,10385392604262909	11	0,163140193	0,000375846226
2	0	0	1	1	8916,18	3,54664207	3,54753637	-0,12787560792639829	11	0,162306085	0,000453643384
2	0	0	0	1	8923,33	3,47513652	3,47576094	-0,14716011219813242	11	0,161316946	0,000511493359
2	0	0	1	1	8930,48	3,40363073	3,40420604	-0,16265196613191302	11	0,160203829	0,000553700782
2	0	0	1	1	8937,63	3,33212566	3,33260059	-0,17542973680732166	11	0,158991829	0,000584637222
2	0	0	0	1	8944,78	3,26061988	3,26131654	-0,1864626663736999	11	0,157693371	0,000608113769
2	0	0	1	1	8951,93	3,18911433	3,18965077	-0,19811638685253818	11	0,156314358	0,000631922099
2	0	0	0	1	8959,08	3,11760926	3,1180861	-0,21020777414863245	11	0,154851794	0,000655445911
2	0	0	0	1	8966,23	3,04610372	3,04677129	-0,22389655692192445	11	0,153297946	0,000682161597
2	0	0	1	1	8973,38	2,97459841	2,97511578	-0,23786331014707773	11	0,151644737	0,000707670872
2	0	0	0	1	8980,53	2,90309286	2,90396214	-0,25017619132995539	11	0,149894401	0,000726502214
2	0	0	1	1	8987,68	2,83158755	2,83208609	-0,26047360245138496	11	0,148062572	0,000737683673
2	0	0	1	1	8994,83	2,76008201	2,76079154	-0,26506868276434714	11	0,146177799	0,000731799402
2	0	0	0	1	9001,98	2,68857646	2,68882537	-0,26576290209777654	11	0,144275352	0,000714590016
2	0	0	1	1	9009,14	2,61707091	2,61764145	-0,26553558302111923	11	0,142373279	0,000695076946
2	0	0	1	1	9016,29	2,54556584	2,54615617	-0,26563332216890333	11	0,140472025	0,000676343916
2	0	0	0	1	9023,44	2,47406006	2,47463155	-0,2667454567272225	11	0,138565928	0,000660096703
2	0	0	1	1	9030,59	2,40255451	2,40334678	-0,26843379111960531	11	0,136649475	0,000645139487
2	0	0	0	1	9037,74	2,33104897	2,33133054	-0,26956563085938611	11	0,134722561	0,000628446578
2	0	0	0	1	9044,89	2,2595439	2,26010609	-0,26999505562707872	11	0,132789552	0,000610217452
2	0	0	1	1	9052,04	2,18803811	2,18855119	-0,26955243929599738	11	0,13085711	0,000589929288
2	0	0	0	1	9059,19	2,1165328	2,11706638	-0,26699570100754477	11	0,128935963	0,00056524761
2	0	0	1	1	9066,34	2,04502726	2,04551125	-0,26343503997971674	11	0,127035648	0,000538859342
2	0	0	1	1	9073,49	1,97352183	1,97389591	-0,26082119764760138	11	0,125158116	0,000514833897
2	0	0	0	1	9080,64	1,9020164	1,90299237	-0,25840264512225965	11	0,123299405	0,000491738261
2	0	0	1	1	9087,79	1,83051097	1,83085585	-0,2566517189455535	11	0,121455126	0,000469892286
2	0	0	0	1	9094,94	1,75900543	1,75978196	-0,25477975785421837	11	0,119623773	0,000448356819
2	0	0	0	1	9102,09	1,68749988	1,68792617	-0,2530533263925472	11	0,117805377	0,000427135325
2	0	0	1	1	9109,24	1,61599457	1,61638105	-0,25351640116423414	11	0,115992121	0,00040977911
2	0	0	0	1	9116,39	1,54448915	1,54500639	-0,25656887368920067	11	0,11416658	0,000396400545
2	0	0	1	1	9123,54	1,4729836	1,47336125	-0,26213290876088058	11	0,112310082	0,000386216474
2	0	0	1	1	9130,69	1,40147805	1,40216696	-0,26885728895043302	11	0,110408671	0,000376982818
2	0	0	0	1	9137,85	1,32997274	1,33041143	-0,27640417132837158	11	0,108455285	0,000367731263
2	0	0	1	1	9145,00	1,2584672	1,25884616	-0,28225573369612355	11	0,106454648	0,000355316559
2	0	0	1	1	9152,15	1,18696177	1,18731117	-0,28642461340253523	11	0,104417704	0,000340075145
2	0	0	0	1	9159,30	1,11545622	1,11585629	-0,292260474758224	11	0,102346085	0,000326120702
2	0	0	1	1	9166,45	1,04395068	1,04427123	-0,30201568718378848	11	0,100221463	0,000315386307
2	0	0	0	1	9173,60	0,972445369	0,972645879	-0,31931846775114534	11	0,0980021507	0,000310583797
2	0	0	0	1	9180,75	0,900939941	0,901381552	-0,34641324814098605	11	0,0956243798	0,000312250515
2	0	0	1	1	9187,90	0,829434454	0,829846501	-0,37890485581010534	11	0,0930257961	0,000314432866
2	0	0	0	1	9195,05	0,757929027	0,758421719	-0,40569369758789798	11	0,0902113989	0,000307686918
2	0	0	1	1	9202,20	0,68642354	0,686826527	-0,4240404803616329	11	0,0872379541	0,000291242264
2	0	0	1	1	9209,35	0,614918113	0,615191221	-0,44191065104678272	11	0,0841416344	0,00027185955
2	0	0	0	1	9216,50	0,543412626	0,543646097	-0,46907912924264928	11	0,0808888152	0,00025501303
2	0	0	1	1	9223,65	0,471907139	0,472161263	-0,50794310231382592	11	0,0773996189	0,000239831061
2	0	0	0	1	9230,80	0,400401682	0,400736451	-0,55741171787182611	11	0,0735956579	0,000223375187
2	0	0	0	1	9237,95	0,328896224	0,329291612	-0,62885104694093389	11	0,0693691969	0,000207075369
2	0	0	1	1	9243,45	0,273892075	0,274006397	-0,71151107549667354	11	0,0656961054	0,000194958586