File: Experimentelles/Rohdaten/Batteriemessungen/AlteZelle/150511_LLTO_LTO_Tests/ECLab-Export/LLTO_LP30_LTO_02_CV_C01_loop5.mpt
EC-Lab ASCII FILE
Nb header lines : 3
mode	ox/red	error	control changes	counter inc.	time/s	control/V	Ewe/V	<I>/mA	cycle number	(Q-Qo)/C	P/W
2	1	0	0	0	4530,00	0,272091925	0,272482663	-0,63517677783966067	6	0	0,000173074659
2	1	0	0	0	4537,12	0,343297333	0,343616694	-0,047051083160719514	6	-0,00151358324	1,6167538E-005
2	1	0	1	0	4544,30	0,41510281	0,415693015	0,020154572931157133	6	-0,00154208415	8,37811513E-006
2	1	0	0	0	4551,41	0,486108214	0,486285776	0,03908798603030528	6	-0,00132105208	1,90079318E-005
2	1	0	0	0	4558,51	0,557113707	0,557389796	0,051498982318056109	6	-0,000995188835	2,87050079E-005
2	1	0	1	0	4565,61	0,628119051	0,628453672	0,06327865944088745	6	-0,000584842463	3,97677068E-005
2	1	0	0	0	4572,71	0,699124575	0,699617803	0,076244376987839706	6	-8,59617649E-005	5,33419225E-005
2	1	0	1	0	4579,81	0,770129919	0,770771921	0,085361935547552998	6	0,00049341761	6,57945857E-005
2	1	0	1	0	4586,91	0,841135383	0,84144491	0,089778341352939443	6	0,00112070714	7,55435249E-005
2	1	0	1	0	4593,93	0,911340714	0,911857188	0,090840980352368422	6	0,00175898208	8,2833998E-005
2	1	0	0	0	4601,03	0,982346058	0,982780755	0,091362622915766912	6	0,00240859739	8,97894279E-005
2	1	0	0	0	4608,13	1,05335152	1,05377448	0,091331393496754125	6	0,00305907615	9,6242693E-005
2	1	0	1	0	4615,23	1,12435687	1,12486839	0,09203769848681975	6	0,00371301523	0,000103530299
2	1	0	0	0	4622,33	1,19536233	1,19577193	0,093857735996910605	6	0,00437535299	0,000112232447
2	1	0	1	0	4629,43	1,26636779	1,2670964	0,095028603682294272	6	0,00505175069	0,000120410405
2	1	0	1	0	4636,53	1,33737326	1,33776939	0,093762115458957901	6	0,00572542613	0,000125432081
2	1	0	0	0	4643,63	1,4083786	1,40916407	0,088907504493060058	6	0,00637921412	0,000125285267
2	1	0	1	0	4650,73	1,47938406	1,4798069	0,085347282292786765	6	0,00699751778	0,000126297498
2	1	0	1	0	4657,83	1,55038953	1,55092096	0,088076330527352627	6	0,00761303958	0,000136599425
2	1	0	0	0	4664,93	1,62139487	1,62174416	0,094055290372731853	6	0,00826086942	0,000152533612
2	1	0	1	0	4672,08	1,6928004	1,6930989	0,10203167295549066	6	0,0089626126	0,000172749715
2	1	0	0	0	4679,18	1,76380575	1,76442337	0,11031143995933202	6	0,00971911382	0,000194636086
2	1	0	0	0	4686,28	1,83481121	1,83543706	0,11899878053615483	6	0,0105368933	0,000218414774
2	1	0	1	0	4693,38	1,90581679	1,90640092	0,12746750877704472	6	0,011416682	0,000243004179
2	1	0	0	0	4700,48	1,97682202	1,97752488	0,13593169666516269	6	0,0123567032	0,000268808304
2	1	0	1	0	4707,58	2,04782844	2,04830933	0,14351736275293714	6	0,0133528318	0,000293967954
2	1	0	1	0	4714,68	2,11883307	2,11947203	0,15020586189348227	6	0,0143992892	0,00031835711
2	1	0	0	0	4721,78	2,18983817	2,19050598	0,15596446519096685	6	0,0154909026	0,000341641105
2	1	0	1	0	4728,88	2,26084352	2,26150966	0,16198003039850506	6	0,0166234784	0,000366319407
2	1	0	1	0	4735,98	2,3318491	2,33245325	0,16805651869314387	6	0,017798014	0,00039198398
2	1	0	0	0	4743,08	2,40285468	2,4037981	0,17536285608851677	6	0,0190209802	0,000421536912
2	1	0	1	0	4750,18	2,47386003	2,47455096	0,18295367003884134	6	0,0202962123	0,000452728185
2	1	0	0	0	4757,28	2,54486537	2,54538441	0,19037148655237002	6	0,0216242094	0,00048456862
2	1	0	0	0	4764,38	2,61587095	2,61664891	0,19779052298205536	6	0,0230048168	0,000517548353
2	1	0	1	0	4771,48	2,68687654	2,68736196	0,20563806787443674	6	0,0244414639	0,00055262394
2	1	0	0	0	4778,58	2,75788164	2,75827551	0,21395510109141491	6	0,0259365458	0,000590147101
2	1	0	0	0	4785,68	2,82888722	2,82964015	0,22346212373425622	6	0,0274924878	0,000632317387
2	1	0	1	0	4792,78	2,89989257	2,90067387	0,23481842704738198	6	0,0291213505	0,000681131671
2	1	0	0	0	4799,89	2,97089815	2,97152734	0,24924421201770496	6	0,0308407266	0,000740635965
2	1	0	1	0	4806,99	3,0419035	3,04246092	0,26915654703043402	6	0,0326819308	0,000818898261
2	1	0	1	0	4814,09	3,11290884	3,11346459	0,2950157922071712	6	0,0346842371	0,000918521197
2	1	0	0	0	4821,19	3,18391418	3,18462849	0,32937885448336602	6	0,0368997268	0,00104894931
2	1	0	1	0	4828,29	3,25491977	3,25539184	0,37374004644031302	6	0,0393909737	0,00121667027
2	1	0	0	0	4835,39	3,32592583	3,32657599	0,43447002648377222	6	0,0422520563	0,00144529762
2	1	0	0	0	4842,49	3,39693046	3,39762998	0,51390098563084941	6	0,0456124432	0,00174604543
2	1	0	1	0	4849,59	3,46793604	3,46883416	0,60615833755582387	6	0,0495894291	0,00210266281
2	1	0	0	0	4856,69	3,53894114	3,5396874	0,70834268691638874	6	0,0542550869	0,00250731176
2	1	0	0	0	4863,79	3,60994673	3,61055088	0,81345729343593472	6	0,0596658252	0,00293702888
2	1	0	1	0	4870,89	3,68095207	3,68164468	0,90138520331432307	6	0,0657710731	0,0033185801
2	1	0	0	0	4877,99	3,75195765	3,75283909	0,97406579243640051	6	0,072437644	0,00365551212
2	1	0	0	0	4885,13	3,82336307	3,8243351	1,0398241018300016	6	0,0796353742	0,00397663563
2	1	0	1	0	4892,23	3,89436841	3,89513731	1,1049129518990667	6	0,0872502476	0,00430378783
2	1	0	0	0	4899,33	3,96537399	3,96626139	1,175428720501559	6	0,0953433067	0,00466205738
2	1	0	1	0	4906,43	4,03637934	4,03735495	1,254023391753428	6	0,103963353	0,00506293774
2	1	0	1	0	4913,53	4,10738468	4,10827875	1,3585102635746189	6	0,113218881	0,00558113866
2	1	0	0	0	4920,63	4,17839003	4,17924261	1,5333994242052214	6	0,123431399	0,00640844833
2	0	0	1	1	4927,68	4,1511879	4,15205574	0,94818523867676595	6	0,132856518	0,00393691799
2	0	0	0	1	4934,82	4,07978296	4,08052063	0,43945283427213555	6	0,13760443	0,00179319631
2	0	0	0	1	4941,92	4,00877714	4,00919628	0,18523668028259043	6	0,139714301	0,000742650183
2	0	0	1	1	4949,02	3,9377718	3,9382627	0,055705026995080064	6	0,140517056	0,000219381036
2	0	0	0	1	4956,24	3,86556625	3,86633682	-0,018492638890165837	6	0,140624434	7,14987691E-005
2	0	0	1	1	4963,34	3,79456091	3,79538345	-0,064823300926946099	6	0,140315443	0,000246029289
2	0	0	1	1	4970,44	3,72355533	3,72433949	-0,09734344385409111	6	0,139730901	0,000362540042
2	0	0	0	1	4977,58	3,65215015	3,6528945	-0,12252649855023944	6	0,138939917	0,000447576371
2	0	0	1	1	4984,68	3,58114457	3,58179045	-0,14327685403016733	6	0,137990177	0,000513187668
2	0	0	1	1	4991,78	3,5101397	3,510566	-0,16161619159959952	6	0,13690123	0,000567364332
2	0	0	0	1	4998,88	3,43913341	3,43991327	-0,17522932309657334	6	0,135699719	0,000602773682
2	0	0	1	1	5005,98	3,3681283	3,36872935	-0,18637781349631677	6	0,134411097	0,000627856411
2	0	0	0	1	5013,08	3,29712272	3,29760528	-0,19613647662724109	6	0,133049265	0,000646780652
2	0	0	0	1	5020,18	3,22611737	3,22645116	-0,20502284083825894	6	0,131622255	0,000661496189
2	0	0	1	1	5027,28	3,15511179	3,15553713	-0,21370797200749347	6	0,130132616	0,000674363459
2	0	0	0	1	5034,38	3,08410692	3,08450365	-0,22327816517402742	6	0,128578499	0,000688702334
2	0	0	1	1	5041,48	3,01310015	3,01365924	-0,23268616671761456	6	0,12695761	0,00070123683
2	0	0	1	1	5048,58	2,94209576	2,94258642	-0,24166592008744646	6	0,125269607	0,000711122877
2	0	0	0	1	5055,69	2,87109041	2,87179327	-0,24948181367168886	6	0,123521775	0,00071646017
2	0	0	1	1	5062,79	2,80008483	2,80070901	-0,25342743649768451	6	0,12173	0,000709776476
2	0	0	1	1	5069,89	2,72907948	2,72949505	-0,25393813724319091	6	0,119922079	0,000693122915
2	0	0	0	1	5076,99	2,65807414	2,65860152	-0,25096419764061805	6	0,118125923	0,000667213812
2	0	0	1	1	5084,09	2,58706856	2,58770823	-0,24786477714466538	6	0,116352186	0,000641401741
2	0	0	0	1	5091,19	2,51606345	2,51682472	-0,24498562212102138	6	0,114599846	0,000616585894
2	0	0	0	1	5098,29	2,44505787	2,44567037	-0,24296781118027888	6	0,11286474	0,000594219193
2	0	0	1	1	5105,39	2,37405229	2,37452626	-0,2407522148763137	6	0,111143835	0,000571672455
2	0	0	0	1	5112,49	2,30304694	2,30337191	-0,23810657028419379	6	0,109440491	0,000548448006
2	0	0	0	1	5119,59	2,23204136	2,23285961	-0,23430655081756413	6	0,107760057	0,000523173658
2	0	0	1	1	5126,69	2,16103601	2,16147494	-0,22956894074256208	6	0,1061083	0,000496207504
2	0	0	0	1	5133,79	2,09003067	2,09074187	-0,22474692117733187	6	0,104490034	0,000469887804
2	0	0	1	1	5140,89	2,01902533	2,01946735	-0,22131385483468512	6	0,102901541	0,000446936116
2	0	0	1	1	5147,99	1,94801986	1,94846368	-0,21950302016921341	6	0,101333261	0,000427693652
2	0	0	0	1	5155,09	1,87701452	1,87764049	-0,21685125220877421	6	0,0997803062	0,0004071687
2	0	0	1	1	5162,19	1,80600893	1,80639625	-0,21383910346776246	6	0,0982467234	0,000386278145
2	0	0	1	1	5169,29	1,73500359	1,73569322	-0,20990969729609789	6	0,0967394933	0,000364338834
2	0	0	0	1	5176,39	1,66399813	1,66445887	-0,20711331837810576	6	0,0952566192	0,000344731612
2	0	0	1	1	5183,49	1,59299278	1,59364545	-0,20671076412933597	6	0,0937858969	0,000329423667
2	0	0	0	1	5190,60	1,52198732	1,52244139	-0,20831622866292854	6	0,0923109949	0,000317149243
2	0	0	0	1	5197,70	1,45098186	1,4516381	-0,21166620023238192	6	0,0908171386	0,00030726273
2	0	0	1	1	5204,80	1,37997651	1,38054395	-0,21555718042266835	6	0,0892960727	0,000297586172
2	0	0	0	1	5211,90	1,30897117	1,30932975	-0,22021948872134179	6	0,0877452269	0,000288339914
2	0	0	0	1	5219,00	1,2379657	1,23872709	-0,22491469428253642	6	0,0861616507	0,000278607913
2	0	0	1	1	5226,10	1,16696012	1,16739249	-0,23045940790325424	6	0,0845418647	0,000269036595
2	0	0	0	1	5233,20	1,09595478	1,09651899	-0,23795526575607616	6	0,0828775465	0,000260922476
2	0	0	1	1	5240,30	1,02494931	1,02546513	-0,25451386479350368	6	0,0811327845	0,00026099509
2	0	0	1	1	5247,40	0,953944027	0,954511523	-0,28091232121611664	6	0,0792342573	0,000268134056
2	0	0	0	1	5254,50	0,882938564	0,883367419	-0,31307926106577133	6	0,0771219507	0,000276564009
2	0	0	1	1	5261,60	0,81193316	0,812363684	-0,34196669685964845	6	0,0747883916	0,00027780133
2	0	0	0	1	5268,70	0,740927517	0,741369963	-0,36270046720024806	6	0,0722786635	0,000268895237
2	0	0	0	1	5275,80	0,669922292	0,670205832	-0,37872303416952493	6	0,0696426928	0,000253822393
2	0	0	1	1	5282,90	0,598916829	0,599312305	-0,39577753220995149	6	0,0668903738	0,000237194341
2	0	0	0	1	5290,00	0,527911425	0,528378785	-0,41842919200037978	6	0,0639984682	0,000221089111
2	0	0	0	1	5297,10	0,456905991	0,457154483	-0,44838817588363968	6	0,0609205291	0,000204982658
2	0	0	1	1	5304,20	0,385900587	0,386080593	-0,48852254776284275	6	0,0575997867	0,000188609076
2	0	0	0	1	5311,30	0,314895153	0,315177083	-0,55280075253297946	6	0,0539192334	0,000174230125
2	0	0	1	1	5315,64	0,271491885	0,271841109	-0,61741042633851379	6	0,051392559	0,000167837541