File: Experimentelles/Rohdaten/Batteriemessungen/AlteZelle/150511_LLTO_LTO_Tests/ECLab-Export/LLTO_LP30_LTO_02_CV_C01_loop1.mpt
EC-Lab ASCII FILE
Nb header lines : 3
mode	ox/red	error	control changes	counter inc.	time/s	control/V	Ewe/V	<I>/mA	cycle number	(Q-Qo)/C	P/W
2	1	0	0	0	1386,11	0,271191865	0,272081673	-0,49299645423889158	2	0	0,000134135305
2	1	0	0	0	1393,28	0,342897266	0,343025208	-0,042093787478127795	2	-0,00102383422	1,44392297E-005
2	1	0	1	0	1400,47	0,41480276	0,415302068	0,0024773953355179437	2	-0,0011385096	1,02886736E-006
2	1	0	0	0	1407,66	0,486708224	0,487167895	0,022482331682112902	2	-0,00103993819	1,095267E-005
2	1	0	1	0	1414,81	0,558212996	0,558612347	0,034160485001688333	2	-0,000830815232	1,90824685E-005
2	1	0	1	0	1421,96	0,629719138	0,6300475	0,04091637216818839	2	-0,000557632768	2,57792581E-005
2	1	0	0	0	1429,11	0,701224625	0,701853216	0,04625362494455959	2	-0,000242098642	3,24632565E-005
2	1	0	1	0	1436,26	0,772730052	0,77302742	0,050962916226126253	2	0,000107978645	3,93957307E-005
2	1	0	1	0	1443,41	0,84423542	0,844622552	0,053484323298713664	2	0,00048625606	4,51740671E-005
2	1	0	1	0	1450,52	0,91534096	0,91594708	0,053545107754568109	2	0,000872422999	4,90444836E-005
2	1	0	0	0	1457,67	0,986846387	0,987341762	0,050626861513592301	2	0,0012482265	4,99860143E-005
2	1	0	1	0	1464,82	1,05835176	1,05890691	0,048187346052145696	2	0,00160357542	5,10259124E-005
2	1	0	1	0	1471,97	1,1298573	1,13032162	0,048032346550219872	2	0,00194933289	5,42919988E-005
2	1	0	0	0	1479,12	1,20136261	1,20176637	0,049151775349552397	2	0,0022999947	5,90689524E-005
2	1	0	1	0	1486,27	1,27286816	1,27335167	0,050552564634320563	2	0,00266115973	6,43711901E-005
2	1	0	0	0	1493,43	1,3443737	1,34489667	0,054593211854808256	2	0,00303939939	7,34222267E-005
2	1	0	0	0	1500,58	1,41587901	1,41630137	0,06329273933079072	2	0,00346044614	8,9641595E-005
2	1	0	1	0	1507,73	1,48738456	1,48793662	0,070003151001098278	2	0,00394301303	0,000104160252
2	1	0	0	0	1514,88	1,55888999	1,55949187	0,073279155748120269	2	0,00445943419	0,000114278249
2	1	0	1	0	1522,03	1,63039541	1,63081634	0,075901506002992166	2	0,00499450834	0,000123781414
2	1	0	1	0	1529,18	1,70190084	1,70232129	0,078248431653870963	2	0,00554905366	0,000133203968
2	1	0	0	0	1536,33	1,77340627	1,77389634	0,08375908226783712	2	0,00613116613	0,000148579929
2	1	0	1	0	1543,48	1,84491181	1,84539139	0,089882078347727437	2	0,006754959	0,000165867619
2	1	0	1	0	1550,63	1,91641724	1,91711688	0,095970867880775027	2	0,00742275501	0,000183987373
2	1	0	0	0	1557,82	1,98832273	1,98898268	0,10118531140809229	2	0,00813571271	0,000201255825
2	1	0	1	0	1564,97	2,05982828	2,06065822	0,10511078115086958	2	0,00887896586	0,0002165974
2	1	0	0	0	1572,12	2,13133359	2,13206267	0,10895360602686832	2	0,00964873843	0,000232295919
2	1	0	1	0	1579,27	2,20283985	2,20341945	0,11189723433468046	2	0,0104417941	0,000246556534
2	1	0	1	0	1586,42	2,27434444	2,27491236	0,11565354699268938	2	0,0112590026	0,000263101683
2	1	0	0	0	1593,57	2,34584999	2,34650755	0,1200109677544483	2	0,01210465	0,000281606655
2	1	0	1	0	1600,72	2,41735554	2,41820288	0,12439796421676918	2	0,012983284	0,00030081952
2	1	0	1	0	1607,87	2,48886085	2,48944736	0,1295337177192164	2	0,0138961943	0,000322467356
2	1	0	0	0	1615,02	2,56036639	2,56101227	0,13510292232967914	2	0,014845835	0,000346000248
2	1	0	1	0	1622,17	2,63187194	2,63235712	0,14233170038399611	2	0,0158407222	0,00037466787
2	1	0	0	0	1629,33	2,70337725	2,70377159	0,1503654736249408	2	0,0168906283	0,000406553881
2	1	0	0	0	1636,48	2,77488279	2,77559757	0,1599397653869048	2	0,0180037823	0,000443928438
2	1	0	1	0	1643,63	2,8463881	2,84706235	0,17121923074591904	2	0,019188676	0,000487471814
2	1	0	0	0	1650,78	2,91789365	2,9183569	0,18494935512232314	2	0,020464249	0,000539748231
2	1	0	1	0	1657,93	2,98939919	2,99007225	0,20414037016841213	2	0,0218582675	0,000610394462
2	1	0	1	0	1665,08	3,0609045	3,06165767	0,22686675144359392	2	0,0234005395	0,000694588351
2	1	0	0	0	1672,23	3,13240981	3,13296199	0,2561394649868207	2	0,0251269098	0,000802475202
2	1	0	1	0	1679,38	3,20391536	3,20463729	0,29591429311161235	2	0,0270975363	0,000948297966
2	1	0	0	0	1686,53	3,27542162	3,27599335	0,34951172173969082	2	0,0294004064	0,00114499812
2	1	0	0	0	1693,68	3,34692621	3,3476274	0,42395456306015514	2	0,0321582519	0,00141924189
2	1	0	1	0	1700,83	3,41843176	3,41911197	0,52131735766306163	2	0,0355262533	0,00178244244
2	1	0	0	0	1707,98	3,48993707	3,49066687	0,6389547719930615	2	0,0396683365	0,00223037833
2	1	0	1	0	1715,13	3,56144309	3,56224275	0,76403688689342003	2	0,0446907692	0,00272168475
2	1	0	1	0	1722,28	3,63294816	3,63373756	0,87330636195838451	2	0,0505648926	0,00317336619
2	1	0	0	0	1729,43	3,70445395	3,70508194	0,95356459977725901	2	0,0571175069	0,00353303505
2	1	0	1	0	1736,62	3,77635908	3,7772584	1,0134415933862328	2	0,0642050654	0,00382803078
2	1	0	1	0	1743,77	3,84786463	3,84865308	1,0722258935372011	2	0,0716462582	0,0041266256
2	1	0	0	0	1750,92	3,91936994	3,92006803	1,1998487375676597	2	0,0797213167	0,00470348867
2	1	0	1	0	1758,08	3,99087548	3,99172306	1,3252588339770899	2	0,0888093784	0,00529006636
2	1	0	0	0	1765,23	4,06238079	4,0632081	1,4061484786992224	2	0,0985706225	0,00571347401
2	1	0	0	0	1772,38	4,13388586	4,13485336	1,5310783095814387	2	0,109028503	0,00633078441
2	0	0	1	1	1779,47	4,19519091	4,19595289	1,6457342337816954	2	0,120627329	0,00690542348
2	0	0	0	1	1786,62	4,12368584	4,12456799	0,82434411377955994	2	0,129089281	0,00340006338
2	0	0	1	1	1793,81	4,05178022	4,05247211	0,40810773413007475	2	0,133349344	0,00165384519
2	0	0	1	1	1800,96	3,98027563	3,98075724	0,19462343213646038	2	0,135422781	0,000774748623
2	0	0	0	1	1808,11	3,90876889	3,90962243	0,06714607231939817	2	0,136326417	0,000262515794
2	0	0	1	1	1815,38	3,83606362	3,83689427	-0,027046440081903754	2	0,136449039	0,000103774328
2	0	0	0	1	1822,53	3,76455808	3,76517868	-0,084869475763601818	2	0,136026591	0,000319548737
2	0	0	0	1	1829,72	3,69265294	3,69334269	-0,11864996871542344	2	0,1352828	0,000438215007
2	0	0	1	1	1836,87	3,62114716	3,62179828	-0,14173324988223613	2	0,134343356	0,000513329229
2	0	0	0	1	1844,02	3,54964209	3,55054379	-0,15817475679796211	2	0,13326475	0,000561606372
2	0	0	1	1	1851,17	3,47813606	3,47889829	-0,17013518485085443	2	0,132085428	0,000591883028
2	0	0	1	1	1858,32	3,40663075	3,40751362	-0,18047040894938026	2	0,130827472	0,000614955381
2	0	0	0	1	1865,47	3,33512568	3,33575821	-0,18982381195140397	2	0,129499927	0,000633206335
2	0	0	1	1	1872,62	3,2636199	3,2639823	-0,19881263274388995	2	0,128107116	0,00064892089
2	0	0	0	1	1879,78	3,19211435	3,19256783	-0,20652795645097875	2	0,126654953	0,000659354497
2	0	0	0	1	1886,93	3,12060905	3,1211431	-0,21408732980489731	2	0,125146106	0,000668197172
2	0	0	1	1	1894,08	3,0491035	3,04981852	-0,22156162916993072	2	0,123584658	0,000675722782
2	0	0	0	1	1901,23	2,97759819	2,97833347	-0,2267438329290601	2	0,121977769	0,000675318763
2	0	0	1	1	1908,38	2,90609264	2,90662813	-0,2312362125764289	2	0,120334446	0,000672117691
2	0	0	1	1	1915,53	2,83458734	2,83516335	-0,2339683369112513	2	0,118666425	0,000663338462
2	0	0	0	1	1922,68	2,76308179	2,7635479	-0,23293087794445456	2	0,11699158	0,000643715612
2	0	0	1	1	1929,83	2,69157624	2,69209313	-0,2288346335602305	2	0,115335971	0,000616044155
2	0	0	0	1	1936,98	2,62007093	2,62066841	-0,22306026464017779	2	0,11371579	0,000584566966
2	0	0	0	1	1944,13	2,54856539	2,54920363	-0,21604005239593648	2	0,11214143	0,000550730096
2	0	0	1	1	1951,28	2,47705984	2,4777987	-0,20737228604654458	2	0,110623218	0,000513826788
2	0	0	0	1	1958,43	2,40555453	2,40614367	-0,19880874974963536	2	0,109167852	0,000478362403
2	0	0	0	1	1965,58	2,33405018	2,33463979	-0,18950453610341622	2	0,107777968	0,000442424818
2	0	0	1	1	1972,73	2,26254368	2,26299334	-0,18106541351880858	2	0,106449693	0,000409749831
2	0	0	0	1	1979,88	2,19103813	2,19153833	-0,1751413671299824	2	0,105172686	0,000383829029
2	0	0	1	1	1987,03	2,11953259	2,12004328	-0,17072588787414134	2	0,103934094	0,000361946266
2	0	0	1	1	1994,18	2,04802752	2,04844809	-0,16799363393026112	2	0,10272114	0,000344126223
2	0	0	0	1	2001,33	1,97652197	1,97722399	-0,16755607902693258	2	0,101519503	0,000331295887
2	0	0	1	1	2008,48	1,9050163	1,90569878	-0,16868029620187968	2	0,100314021	0,000321453845
2	0	0	0	1	2015,64	1,83351088	1,83419394	-0,17128314279640723	2	0,0990937725	0,000314166507
2	0	0	0	1	2022,79	1,76200545	1,76268888	-0,17479115538298995	2	0,097852543	0,000308102433
2	0	0	1	1	2029,94	1,69050002	1,690763	-0,17967869911808566	2	0,0965827554	0,000303794106
2	0	0	0	1	2037,09	1,61899447	1,61958885	-0,18544913347189683	2	0,0952747613	0,000300351356
2	0	0	1	1	2044,24	1,54748917	1,548154	-0,19337077500919443	2	0,0939173847	0,000299367734
2	0	0	1	1	2051,39	1,47598374	1,47654879	-0,20266190605858992	2	0,0924986228	0,000299240201
2	0	0	0	1	2058,54	1,40447819	1,4051441	-0,21231388005738339	2	0,0910100937	0,000298331608
2	0	0	1	1	2065,69	1,33297276	1,33339846	-0,22036273358389779	2	0,0894572288	0,000293831341
2	0	0	0	1	2072,84	1,26146734	1,26217425	-0,22421687026508154	2	0,0878613964	0,000283000758
2	0	0	0	1	2079,99	1,18996191	1,19052899	-0,22559032752178653	2	0,0862499475	0,000268571835
2	0	0	1	1	2087,14	1,11845636	1,1189537	-0,23063213199687517	2	0,0846201628	0,000258066691
2	0	0	0	1	2094,29	1,04695094	1,04745877	-0,24433490486505194	2	0,0829215273	0,000255930732
2	0	0	1	1	2101,44	0,975444794	0,975591779	-0,26596351995926915	2	0,0810972229	0,000259471824
2	0	0	1	1	2108,59	0,903940082	0,904468954	-0,29176805168390227	2	0,0791023299	0,000263895141
2	0	0	0	1	2115,74	0,832434595	0,832863748	-0,31835540515991443	2	0,0769147724	0,000265146664
2	0	0	1	1	2122,89	0,760929167	0,76113832	-0,34024687631366125	2	0,0745534897	0,000258974935
2	0	0	1	1	2130,04	0,68942368	0,68963331	-0,35489753462995123	2	0,0720614418	0,000244749157
2	0	0	0	1	2137,19	0,617918253	0,618138373	-0,3643243839809056	2	0,0694855005	0,000225202879
2	0	0	1	1	2144,35	0,546412766	0,546543181	-0,3786868222523481	2	0,066829659	0,000206968703
2	0	0	0	1	2151,50	0,474907309	0,475228697	-0,39987693820148704	2	0,0640453845	0,000190032995
2	0	0	0	1	2158,65	0,403401881	0,403783888	-0,42896647114927514	2	0,0610846207	0,000173209744
2	0	0	1	1	2165,80	0,331896424	0,332218766	-0,47199386327216986	2	0,0578714386	0,000156805225
2	0	0	1	1	2171,92	0,270591825	0,270638138	-0,53668016195297242	2	0,0548028387	0,000145246115