File: Experimentelles/Rohdaten/Batteriemessungen/AlteZelle/150511_LLTO_LTO_Tests/ECLab-Export/LLTO_LP30_LTO_02_CV_C01_loop4.mpt
EC-Lab ASCII FILE
Nb header lines : 3
mode	ox/red	error	control changes	counter inc.	time/s	control/V	Ewe/V	<I>/mA	cycle number	(Q-Qo)/C	P/W
2	1	0	0	0	3744,10	0,271591902	0,272242069	-0,61854028701782221	5	0	0,000168392682
2	1	0	0	0	3751,27	0,343297303	0,343787074	-0,048173342598602234	5	-0,00147213682	1,65613728E-005
2	1	0	1	0	3758,50	0,415602773	0,416124046	0,015800622548946707	5	-0,00152739498	6,57501914E-006
2	1	0	0	0	3765,65	0,487108231	0,487208039	0,035360586053381299	5	-0,00133408001	1,72279615E-005
2	1	0	0	0	3772,80	0,558613956	0,55896467	0,048311994711934592	5	-0,00102983229	2,70046985E-005
2	1	0	1	0	3779,95	0,630119205	0,630558789	0,06030287737182039	5	-0,000639569655	3,8024511E-005
2	1	0	0	0	3787,11	0,701624632	0,702163994	0,072237105264017613	5	-0,000163002172	5,0722294E-005
2	1	0	1	0	3794,26	0,773130119	0,773658931	0,081484773467915494	5	0,000391870708	6,30414215E-005
2	1	0	1	0	3801,41	0,844635487	0,845013559	0,086141689370075597	5	0,000996106537	7,27908919E-005
2	1	0	1	0	3808,48	0,91534096	0,915896952	0,087869395715340032	5	0,00161492045	8,0479309E-005
2	1	0	0	0	3815,63	0,986846387	0,987101197	0,088314309172953293	5	0,00224753888	8,71751618E-005
2	1	0	1	0	3822,78	1,05835176	1,05888689	0,08855091894899159	5	0,00288263452	9,3765404E-005
2	1	0	1	0	3829,93	1,1298573	1,13023138	0,089477589101685683	5	0,00352135184	0,000101130376
2	1	0	0	0	3837,08	1,20136261	1,20191669	0,091133287816774208	5	0,00416951068	0,000109534623
2	1	0	1	0	3844,23	1,27286816	1,2731812	0,091790807472231334	5	0,00483218161	0,000116866329
2	1	0	0	0	3851,38	1,3443737	1,34494686	0,08871126151643671	5	0,0054822606	0,000119311931
2	1	0	0	0	3858,53	1,41587901	1,41662228	0,082674170184569907	5	0,00609842967	0,00011711807
2	1	0	1	0	3865,68	1,48738456	1,48775625	0,080523940676357158	5	0,00668020127	0,000119799995
2	1	0	0	0	3872,83	1,55888999	1,55950189	0,084136358481676326	5	0,00726990448	0,000131210807
2	1	0	1	0	3879,98	1,63039541	1,63083649	0,090317160787526554	5	0,00789506547	0,000147292521
2	1	0	1	0	3887,13	1,70190084	1,70236135	0,097933935079102413	5	0,0085713556	0,00016671895
2	1	0	0	0	3894,32	1,77380645	1,77427745	0,10665356883934397	5	0,00931088347	0,000189233018
2	1	0	1	0	3901,47	1,84531188	1,84585238	0,11525985963332142	5	0,0101080043	0,000212752682
2	1	0	1	0	3908,62	1,91681731	1,91736758	0,12408011495911842	5	0,0109671894	0,000237907196
2	1	0	0	0	3915,78	1,98832273	1,9889226	0,13177518783292475	5	0,0118857389	0,000262090645
2	1	0	1	0	3922,93	2,05982828	2,06035733	0,13841548631899042	5	0,0128573105	0,00028518535
2	1	0	0	0	3930,08	2,13133359	2,13187242	0,14469170496643802	5	0,0138739431	0,000308464252
2	1	0	0	0	3937,23	2,20283914	2,20345759	0,14948706332749443	5	0,0149290692	0,000329388393
2	1	0	1	0	3944,38	2,27434444	2,27485228	0,15481384424492672	5	0,0160206594	0,000352178613
2	1	0	0	0	3951,53	2,34584999	2,34659743	0,16106358508113728	5	0,0171523225	0,000377951394
2	1	0	1	0	3958,68	2,41735554	2,41794229	0,16755721974186643	5	0,0183306783	0,000405143684
2	1	0	1	0	3965,83	2,48886085	2,48944736	0,17477954896942979	5	0,0195586178	0,000435104477
2	1	0	0	0	3972,98	2,56036639	2,56117272	0,18154516854944362	5	0,0208362043	0,000464968529
2	1	0	1	0	3980,13	2,63187194	2,63253736	0,18917630329572899	5	0,022164546	0,000498013687
2	1	0	0	0	3987,28	2,70337725	2,70403266	0,19696477785085565	5	0,0235489178	0,000532599166
2	1	0	0	0	3994,43	2,77488279	2,77538705	0,20511553459800736	5	0,024990106	0,000569274998
2	1	0	1	0	4001,58	2,8463881	2,84678149	0,21443910454399795	5	0,0264908131	0,000610461284
2	1	0	0	0	4008,73	2,91789365	2,91853714	0,22569125696706349	5	0,0280669611	0,00065868831
2	1	0	1	0	4015,88	2,98939967	2,99005294	0,24204896931906371	5	0,0297419224	0,000723739213
2	1	0	1	0	4023,03	3,0609045	3,06166744	0,26205118326470256	5	0,0315449722	0,00080231356
2	1	0	0	0	4030,18	3,13240981	3,13306212	0,2874653985879072	5	0,0335092843	0,000900646963
2	1	0	1	0	4037,33	3,20391536	3,20463729	0,32101388671435418	5	0,0356829949	0,0010287331
2	1	0	0	0	4044,49	3,27542186	3,27597356	0,36785527760686067	5	0,0381406173	0,00120508415
2	1	0	0	0	4051,64	3,34692621	3,34745669	0,43567125002543072	5	0,0410058908	0,00145839062
2	1	0	1	0	4058,79	3,41843176	3,41899204	0,52203606006999514	5	0,0444239601	0,00178483711
2	1	0	0	0	4065,94	3,48993707	3,49046659	0,6186354604239241	5	0,0485014841	0,00215932634
2	1	0	0	0	4073,09	3,56144261	3,56233263	0,72254042048006899	5	0,0532970577	0,00257392926
2	1	0	1	0	4080,24	3,63294816	3,63364697	0,82293575846900544	5	0,0588378608	0,00299025793
2	1	0	0	0	4087,39	3,70445395	3,7049818	0,90408562589436595	5	0,0650284663	0,00334962085
2	1	0	1	0	4094,54	3,77595901	3,77656698	0,97269242505232614	5	0,071747981	0,00367343798
2	1	0	1	0	4101,73	3,84786487	3,84886408	1,0359730391452686	5	0,0789743289	0,0039873193
2	1	0	0	0	4108,88	3,91937041	3,91999817	1,1082092911625914	5	0,0866370425	0,00434417836
2	1	0	1	0	4116,03	3,99087572	3,99166346	1,1841696848471947	5	0,094835788	0,00472680666
2	1	0	0	0	4123,18	4,06238127	4,06333876	1,267234714391332	5	0,103590526	0,00514920382
2	1	0	0	0	4130,33	4,13388681	4,13470364	1,391989746441439	5	0,113061376	0,00575546501
2	0	0	1	1	4137,42	4,19519138	4,19600344	1,4960383065044845	5	0,123633355	0,00627738191
2	0	0	0	1	4144,57	4,12368584	4,12435818	0,70557594501102899	5	0,13113004	0,002910048
2	0	0	1	1	4151,76	4,0517807	4,05256224	0,31389337747047373	5	0,13463001	0,00127207243
2	0	0	0	1	4158,91	3,98027515	3,98096728	0,11986335068165022	5	0,136098683	0,000477172085
2	0	0	0	1	4166,11	3,90836954	3,90900111	0,017268007975265594	5	0,136554226	6,75006595E-005
2	0	0	1	1	4173,34	3,83606386	3,83671427	-0,044687003857688979	5	0,136435717	0,000171451262
2	0	0	0	1	4180,49	3,76455855	3,76518917	-0,08550783221532288	5	0,135958388	0,00032195315
2	0	0	1	1	4187,68	3,69265294	3,69347358	-0,11397724035972112	5	0,135233596	0,000420971919
2	0	0	1	1	4194,83	3,62114739	3,62167788	-0,13644982529027994	5	0,134331986	0,000494177337
2	0	0	0	1	4201,98	3,54964232	3,5502634	-0,15537979042467987	5	0,133283436	0,000551639183
2	0	0	1	1	4209,13	3,47813654	3,47876835	-0,17042714427225296	5	0,132112578	0,000592876575
2	0	0	1	1	4216,28	3,40663028	3,40719199	-0,1822326144298687	5	0,130846977	0,000620901526
2	0	0	0	1	4223,43	3,33512568	3,33565831	-0,19193019985686989	5	0,129505202	0,000640213548
2	0	0	1	1	4230,58	3,26362014	3,26396298	-0,20127216431622675	5	0,128095627	0,000656944874
2	0	0	0	1	4237,73	3,19211483	3,19274831	-0,20942757162265523	5	0,126624465	0,000668649503
2	0	0	0	1	4244,88	3,12060952	3,12103295	-0,21796482289210006	5	0,12509197	0,000680275378
2	0	0	1	1	4252,03	3,04910398	3,0496285	-0,22726289601996541	5	0,123497367	0,000693067384
2	0	0	0	1	4259,18	2,97759867	2,97832394	-0,2354483533029761	5	0,121839441	0,000701241486
2	0	0	1	1	4266,33	2,90609312	2,90678883	-0,24302164954133264	5	0,120122947	0,000706412597
2	0	0	1	1	4273,48	2,83458757	2,83492279	-0,24887765866393853	5	0,118359298	0,00070554897
2	0	0	0	1	4280,63	2,76308227	2,76350808	-0,25043556552069869	5	0,116568893	0,000692080706
2	0	0	1	1	4287,78	2,69157672	2,69216371	-0,24813169854072205	5	0,114781655	0,00066801114
2	0	0	0	1	4294,94	2,62007117	2,62041807	-0,2443247588040937	5	0,113017291	0,000640232989
2	0	0	0	1	4302,09	2,54856586	2,54933405	-0,24045086908154234	5	0,111281253	0,000612989592
2	0	0	1	1	4309,24	2,47706032	2,47759843	-0,23680469331642019	5	0,109571658	0,000586706912
2	0	0	0	1	4316,39	2,40555477	2,40617394	-0,23385097513285834	5	0,107885472	0,000562686124
2	0	0	0	1	4323,54	2,33405018	2,33444047	-0,22990203291974477	5	0,106224336	0,00053669262
2	0	0	1	1	4330,69	2,26254392	2,26305366	-0,22515556565485894	5	0,104592033	0,000509539153
2	0	0	0	1	4337,84	2,19103861	2,19174886	-0,22076292863736579	5	0,10299281	0,000483856886
2	0	0	1	1	4344,99	2,11953306	2,12002349	-0,2158536944383136	5	0,101428926	0,000457614893
2	0	0	1	1	4352,14	2,04802752	2,04856873	-0,21226316846002822	5	0,0998962298	0,000434835674
2	0	0	0	1	4359,29	1,97652221	1,97706389	-0,21009753745359706	5	0,0983836427	0,000415376242
2	0	0	1	1	4366,44	1,90501654	1,90558875	-0,20779919360453914	5	0,0968850851	0,00039597979
2	0	0	0	1	4373,59	1,83351111	1,83406377	-0,20476931558611501	5	0,0954044983	0,00037555999
2	0	0	0	1	4380,74	1,76200569	1,76245868	-0,20098837853098938	5	0,0939495787	0,000354233722
2	0	0	1	1	4387,89	1,69050014	1,69086337	-0,19816667082098637	5	0,0925205052	0,000335072778
2	0	0	0	1	4395,04	1,61899471	1,61939859	-0,19672556198202026	5	0,0911065862	0,000318577106
2	0	0	1	1	4402,19	1,54748929	1,54806399	-0,19799355433012166	5	0,089693144	0,000306506699
2	0	0	1	1	4409,34	1,47598386	1,47632849	-0,20072830491699146	5	0,0882655531	0,000296340906
2	0	0	0	1	4416,49	1,40447831	1,40487361	-0,20503559056669562	5	0,0868116766	0,000288049079
2	0	0	1	1	4423,64	1,33297288	1,33322823	-0,21067340221877018	5	0,0853221864	0,000280875742
2	0	0	0	1	4430,80	1,26146746	1,26215434	-0,2159371271263817	5	0,0837931409	0,000272545993
2	0	0	0	1	4437,95	1,18996203	1,190539	-0,22172624322896262	5	0,0822256729	0,00026397375
2	0	0	1	1	4445,10	1,11845636	1,11863315	-0,2288232334734248	5	0,0806142166	0,000255969266
2	0	0	0	1	4452,25	1,04695106	1,04736876	-0,24276344974835773	5	0,0789306387	0,00025426285
2	0	0	1	1	4459,40	0,975445628	0,975723445	-0,26719525650454166	5	0,0771094263	0,000260708679
2	0	0	1	1	4466,55	0,903940201	0,904338777	-0,29720890188279258	5	0,0750905126	0,000268777541
2	0	0	0	1	4473,70	0,832434595	0,832803726	-0,32769069448113485	5	0,0728495717	0,00027290202
2	0	0	1	1	4480,85	0,760929227	0,761429071	-0,35107236945380762	5	0,0704150498	0,000267316704
2	0	0	1	1	4488,00	0,689423025	0,689632118	-0,36740356991540147	5	0,067840755	0,000253373291
2	0	0	0	1	4495,15	0,617918313	0,618218601	-0,38335356310320499	5	0,0651539713	0,000236996304
2	0	0	1	1	4502,30	0,546412826	0,546703637	-0,40259484760463149	5	0,062343806	0,000220100061
2	0	0	0	1	4509,45	0,474907339	0,475379109	-0,42806608602404774	5	0,0593745038	0,000203493677
2	0	0	0	1	4516,60	0,403401881	0,403803945	-0,46211456041783098	5	0,0561957508	0,000186603676
2	0	0	1	1	4523,75	0,331896454	0,332118541	-0,51654397339249594	5	0,0527113527	0,000171553824
2	0	0	1	1	4529,83	0,270991862	0,271520317	-0,59742653369903565	5	0,0493461974	0,000162213444