File: Experimentelles/Rohdaten/Batteriemessungen/AlteZelle/150511_LLTO_LTO_Tests/ECLab-Export/LLTO_LP30_LTO_02_CV_C01_loop6.mpt
EC-Lab ASCII FILE
Nb header lines : 3
mode	ox/red	error	control changes	counter inc.	time/s	control/V	Ewe/V	<I>/mA	cycle number	(Q-Qo)/C	P/W
2	1	0	1	0	5315,81	0,272391975	0,272803456	-0,65984547138214106	7	0	0,000180008123
2	1	0	0	0	5322,89	0,343197316	0,343596637	-0,053498405904974886	7	-0,00161089411	1,8381872E-005
2	1	0	1	0	5330,11	0,41540283	0,415973723	0,020023353480307059	7	-0,00165607338	8,32918886E-006
2	1	0	0	0	5337,21	0,486408263	0,486686766	0,039471484972940147	7	-0,00143374247	1,92102489E-005
2	1	0	0	0	5344,31	0,557413697	0,557760715	0,052018345508258682	7	-0,00110462867	2,90137905E-005
2	1	0	1	0	5351,41	0,628419101	0,628664196	0,064541154812711168	7	-0,000688538246	4,05747123E-005
2	1	0	0	0	5358,51	0,699424505	0,699587762	0,07793538187009591	7	-0,000179581431	5,45226394E-005
2	1	0	1	0	5365,61	0,770429969	0,771002471	0,087295411309848077	7	0,000413465954	6,73049799E-005
2	1	0	1	0	5372,71	0,841435313	0,841946125	0,09179965367851159	7	0,00105456705	7,72903659E-005
2	1	0	1	0	5379,75	0,911840796	0,912468672	0,092406893614679347	7	0,0017059634	8,43183952E-005
2	1	0	0	0	5386,85	0,9828462	0,983301997	0,092359448375645798	7	0,00236338982	9,08172296E-005
2	1	0	0	0	5393,95	1,0538516	1,05426562	0,093107976368628442	7	0,00302394573	9,81605408E-005
2	1	0	1	0	5401,05	1,12485707	1,12535954	0,094360289338510259	7	0,00369306328	0,000106189254
2	1	0	0	0	5408,16	1,19586241	1,19626307	0,096490644811031539	7	0,00437387591	0,000115428193
2	1	0	1	0	5415,26	1,26686776	1,26745737	0,09822806444329513	7	0,00506956829	0,000124499886
2	1	0	1	0	5422,36	1,33787334	1,33846104	0,097877393631885299	7	0,00576905906	0,000131005072
2	1	0	0	0	5429,46	1,4088788	1,40928447	0,094451673115448614	7	0,0064571267	0,000133109279
2	1	0	1	0	5436,56	1,47988403	1,48024809	0,091322623154458867	7	0,00711709913	0,000135180133
2	1	0	1	0	5443,66	1,55088949	1,55136216	0,093354637424151181	7	0,00777161494	0,000144826845
2	1	0	0	0	5450,80	1,6222949	1,62253618	0,09987955916828151	7	0,00846245699	0,000162058204
2	1	0	1	0	5457,90	1,69330025	1,69397104	0,10786480809717114	7	0,00920201186	0,000182719858
2	1	0	0	0	5465,00	1,76430583	1,76471412	0,11662421899381981	7	0,0100021409	0,000205808406
2	1	0	0	0	5472,10	1,83531117	1,83598864	0,12563970397847424	7	0,0108658448	0,000230673075
2	1	0	1	0	5479,20	1,90631664	1,90687191	0,13424939099543998	7	0,0117931785	0,00025599639
2	1	0	0	0	5486,30	1,97732222	1,97775543	0,14325901466266488	7	0,0127826417	0,00028333129
2	1	0	1	0	5493,40	2,0483284	2,04885077	0,15092167367748112	7	0,0138306255	0,000309215975
2	1	0	1	0	5500,50	2,11933303	2,11978292	0,15820002583010733	7	0,0149325561	0,000335349701
2	1	0	0	0	5507,60	2,19033837	2,19106746	0,16490262308313232	7	0,0160838626	0,000361312763
2	1	0	1	0	5514,70	2,26134396	2,26180053	0,17092541380164538	7	0,0172794554	0,000386599189
2	1	0	1	0	5521,80	2,3323493	2,33302474	0,17727121307204195	7	0,0185186844	0,00041357812
2	1	0	0	0	5528,90	2,40335464	2,40394831	0,18498203662844938	7	0,0198080223	0,000444687263
2	1	0	1	0	5536,01	2,47435999	2,47485185	0,19269101655421171	7	0,0211515017	0,000476881716
2	1	0	0	0	5543,11	2,54536533	2,54606605	0,20036639622412534	7	0,0225510169	0,000510146085
2	1	0	0	0	5550,21	2,61637092	2,61689949	0,20862443240669747	7	0,0240065139	0,000545949151
2	1	0	1	0	5557,31	2,6873765	2,68798351	0,21666052114839296	7	0,0255210213	0,000582379929
2	1	0	0	0	5564,41	2,75838184	2,75882649	0,22596121742390096	7	0,0270971842	0,000623387808
2	1	0	0	0	5571,51	2,82938719	2,83009124	0,23511583489649325	7	0,0287367143	0,000665399246
2	1	0	1	0	5578,61	2,90039253	2,90105486	0,24689357425086112	7	0,0304499343	0,000716251787
2	1	0	0	0	5585,71	2,97139788	2,97192812	0,26362580806016877	7	0,0322622694	0,000783476979
2	1	0	1	0	5592,81	3,04240346	3,04301214	0,28649645182303997	7	0,0342162102	0,000871812168
2	1	0	1	0	5599,91	3,1134088	3,11387563	0,31536106113344518	7	0,0363526382	0,000981995137
2	1	0	0	0	5607,01	3,18441415	3,18487906	0,35135207084628474	7	0,0387179516	0,00111901388
2	1	0	1	0	5614,11	3,25541973	3,25590277	0,39602973591536326	7	0,04136803	0,00128943427
2	1	0	0	0	5621,21	3,32642603	3,32702732	0,45598869309985798	7	0,044387389	0,00151708687
2	1	0	0	0	5628,31	3,39743042	3,39816117	0,53428133390843693	7	0,0478979237	0,00181557413
2	1	0	1	0	5635,41	3,468436	3,46909499	0,62554877794657984	7	0,052016113	0,00217008824
2	1	0	0	0	5642,51	3,53944135	3,53999829	0,72770254438121997	7	0,0568181425	0,00257606572
2	1	0	0	0	5649,61	3,61044693	3,61103177	0,83380299775550758	7	0,0623687692	0,00301088905
2	1	0	1	0	5656,71	3,68145204	3,68213606	0,9228860987350345	7	0,0686219111	0,00339819212
2	1	0	0	0	5663,82	3,75245762	3,75297952	0,99660440689573453	7	0,0754447207	0,00374023593
2	1	0	1	0	5670,96	3,82386327	3,82448435	1,0659318932642491	7	0,0828183815	0,00407663966
2	1	0	1	0	5678,06	3,89486837	3,89569879	1,1326878033578403	7	0,0906252712	0,00441261055
2	1	0	0	0	5685,16	3,96587396	3,96663237	1,2048198965688534	7	0,0989226773	0,0047790776
2	1	0	1	0	5692,26	4,03687954	4,03787661	1,2884288588538766	7	0,107772395	0,00520251691
2	1	0	1	0	5699,36	4,10788393	4,1086688	1,3958184465253059	7	0,117289044	0,00573495589
2	1	0	0	0	5706,46	4,17888975	4,17959309	1,5656760055571795	7	0,127754346	0,00654388871
2	0	0	1	1	5713,50	4,15068817	4,15151453	0,96384492889046669	7	0,137323409	0,00400141627
2	0	0	0	1	5720,64	4,07928228	4,08009958	0,45320733139912141	7	0,142175242	0,00184913108
2	0	0	0	1	5727,74	4,00827742	4,00898552	0,19672910372416253	7	0,144375518	0,000788684119
2	0	0	1	1	5734,84	3,93727183	3,9376514	0,064608087413944307	7	0,145251483	0,00025440412
2	0	0	0	1	5742,06	3,86506605	3,86561513	-0,01114332794289416	7	0,145418495	4,30758155E-005
2	0	0	1	1	5749,16	3,79406095	3,79478168	-0,057836175935032653	7	0,145160422	0,000219475667
2	0	0	1	1	5756,26	3,72305536	3,72358727	-0,091215416226380966	7	0,144621536	0,00033964857
2	0	0	0	1	5763,40	3,65164971	3,65232325	-0,1174197156991188	7	0,143869773	0,00042885475
2	0	0	1	1	5770,50	3,58064461	3,58124924	-0,13935141626279824	7	0,142952278	0,00049905217
2	0	0	0	1	5777,60	3,50963831	3,51031566	-0,15834899648846611	7	0,141889602	0,000555854989
2	0	0	0	1	5784,70	3,43863368	3,43914127	-0,17255904172391955	7	0,140709355	0,000593454926
2	0	0	1	1	5791,81	3,3676281	3,36832809	-0,18419288230749421	7	0,139437929	0,00062042207
2	0	0	0	1	5798,91	3,29662251	3,29736471	-0,19422781486840294	7	0,138090193	0,000640439917
2	0	0	0	1	5806,01	3,22561741	3,2261703	-0,20348997763358058	7	0,13667424	0,000656493299
2	0	0	1	1	5813,11	3,15461183	3,15516663	-0,21302929442996819	7	0,135192931	0,000672142894
2	0	0	0	1	5820,21	3,08360648	3,08434319	-0,22288595954887613	7	0,133643106	0,000687456806
2	0	0	0	1	5827,31	3,01260138	3,01323962	-0,23317454743272752	7	0,132021129	0,000702610763
2	0	0	1	1	5834,41	2,94159579	2,94212532	-0,24308841365079203	7	0,130325601	0,000715196598
2	0	0	0	1	5841,51	2,87059045	2,87128186	-0,25162427577500602	7	0,128564164	0,000722484197
2	0	0	1	1	5848,61	2,79958487	2,80031824	-0,25673317691932173	7	0,126753122	0,000718934578
2	0	0	1	1	5855,71	2,72857952	2,72913384	-0,2574168056404833	7	0,124921978	0,000702524907
2	0	0	0	1	5862,81	2,65757418	2,65810013	-0,25495079710769142	7	0,123098992	0,000677684729
2	0	0	1	1	5869,91	2,58656859	2,58708668	-0,2526463510779049	7	0,121293887	0,000653618015
2	0	0	0	1	5877,01	2,51556253	2,51604199	-0,25051595635809853	7	0,119505189	0,000630308641
2	0	0	0	1	5884,11	2,44455791	2,44479823	-0,2493883155596759	7	0,117727421	0,000609704119
2	0	0	1	1	5891,21	2,37355232	2,37419534	-0,2482895778181655	7	0,115957439	0,000589487958
2	0	0	0	1	5898,31	2,30254698	2,3029511	-0,2463788929550601	7	0,114198439	0,000567398558
2	0	0	0	1	5905,41	2,23154163	2,23223805	-0,24353839076744998	7	0,112456508	0,000543635688
2	0	0	1	1	5912,51	2,16053605	2,16116428	-0,23910303864007254	7	0,110738553	0,000516740954
2	0	0	0	1	5919,62	2,08953071	2,09027076	-0,23429787578061133	7	0,109052114	0,000489745988
2	0	0	0	1	5926,72	2,01852584	2,01903725	-0,2309680652901367	7	0,107396208	0,00046633312
2	0	0	1	1	5933,82	1,9475199	1,94811296	-0,22858296125195898	7	0,105762288	0,000445305428
2	0	0	0	1	5940,92	1,87651455	1,87702894	-0,22620305030917187	7	0,10414432	0,000424589671
2	0	0	1	1	5948,02	1,80550897	1,80594504	-0,22339555365033469	7	0,102544226	0,000403440092
2	0	0	1	1	5955,12	1,73450351	1,73504138	-0,21964838790396835	7	0,100968316	0,000381099031
2	0	0	0	1	5962,22	1,66349816	1,66359663	-0,21753177706462701	7	0,0994149074	0,000361885119
2	0	0	1	1	5969,32	1,59249258	1,59300387	-0,21702044232127536	7	0,0978716314	0,00034571439
2	0	0	0	1	5976,42	1,52148736	1,52207041	-0,21913757827132973	7	0,0963211358	0,000333542819
2	0	0	0	1	5983,52	1,45048189	1,45083606	-0,22331710959163866	7	0,0947478712	0,00032399653
2	0	0	1	1	5990,62	1,37947631	1,37990236	-0,2275092195874704	7	0,0931431949	0,000313940516
2	0	0	0	1	5997,72	1,30847108	1,30883861	-0,23175749500902976	7	0,0915082991	0,00030333316
2	0	0	0	1	6004,82	1,23746562	1,23805523	-0,23583375701370323	7	0,0898456275	0,000291975215
2	0	0	1	1	6011,92	1,16646016	1,1669513	-0,24074976836952144	7	0,0881508514	0,000280943263
2	0	0	0	1	6019,02	1,09545457	1,09583735	-0,2481427286596345	7	0,0864135399	0,000271924073
2	0	0	1	1	6026,12	1,02444923	1,02507424	-0,26248387402544448	7	0,0846033916	0,000269065466
2	0	0	1	1	6033,22	0,953443944	0,953809917	-0,28687848593108266	7	0,0826551616	0,000273627549
2	0	0	0	1	6040,32	0,882438421	0,88319701	-0,31810849594573274	7	0,0805047527	0,000280952459
2	0	0	1	1	6047,42	0,811433136	0,811712146	-0,34670918240832902	7	0,0781378001	0,000281428045
2	0	0	1	1	6054,53	0,740427673	0,740928888	-0,36828651574129933	7	0,0755919367	0,000272874109
2	0	0	0	1	6061,63	0,669422269	0,66974473	-0,3853891739466544	7	0,0729117244	0,000258112355
2	0	0	1	1	6068,73	0,598416805	0,59884119	-0,40363378139833728	7	0,0701089427	0,000241712536
2	0	0	0	1	6075,83	0,527411401	0,527616918	-0,42880731960758432	7	0,0671547726	0,000226245989
2	0	0	0	1	6082,93	0,456405967	0,456813723	-0,46104944093773856	7	0,0639968887	0,000210613711
2	0	0	1	1	6090,03	0,385400534	0,385789871	-0,50494992081075994	7	0,0605728291	0,000194804568
2	0	0	0	1	6097,13	0,31439513	0,314836264	-0,57430744916200813	7	0,0567580536	0,000180812815
2	0	0	0	1	6101,38	0,271791905	0,271841109	-0,63698923587799078	7	0,0541883074	0,00017315986