File: Experimentelles/Rohdaten/Batteriemessungen/AlteZelle/150511_LLTO_LTO_Tests/ECLab-Export/LLTO_LP30_LTO_02_CV_C01_loop7.mpt
EC-Lab ASCII FILE
Nb header lines : 3
mode	ox/red	error	control changes	counter inc.	time/s	control/V	Ewe/V	<I>/mA	cycle number	(Q-Qo)/C	P/W
2	1	0	1	0	6101,55	0,272391975	0,272482663	-0,6890866756439209	8	0	0,000187764177
2	1	0	0	0	6108,63	0,343197316	0,343586594	-0,063602505678621133	8	-0,00173795456	2,18529676E-005
2	1	0	1	0	6115,84	0,415302813	0,415693015	0,01610317872352121	8	-0,00182783103	6,69397878E-006
2	1	0	0	0	6122,94	0,486308217	0,486746877	0,037577047526913875	8	-0,00162495382	1,82905114E-005
2	1	0	0	0	6130,04	0,557313621	0,557680488	0,05113253269034135	8	-0,00130567374	2,85156166E-005
2	1	0	1	0	6137,14	0,628319085	0,62870425	0,064430334469458726	8	-0,000893046323	4,05076244E-005
2	1	0	0	0	6144,24	0,699324489	0,699918568	0,078740606006855398	8	-0,000381457416	5,51120138E-005
2	1	0	1	0	6151,34	0,770329952	0,770731866	0,088730491930619072	8	0,000219633497	6,83874168E-005
2	1	0	1	0	6158,44	0,841335356	0,841675401	0,093376099384234522	8	0,000871541793	7,85923694E-005
2	1	0	1	0	6165,50	0,911840796	0,912619054	0,093593337980564467	8	0,0015340969	8,54150639E-005
2	1	0	0	0	6172,60	0,9828462	0,98328197	0,091876106414322752	8	0,00219246396	9,0340116E-005
2	1	0	0	0	6179,70	1,0538516	1,05440593	0,09406866113810473	8	0,002853818	9,91865527E-005
2	1	0	1	0	6186,80	1,12485707	1,12536967	0,096455724774083814	8	0,00353439734	0,000108548345
2	1	0	0	0	6193,94	1,19626248	1,19701493	0,09897968685254432	8	0,00423586601	0,000118480166
2	1	0	1	0	6201,04	1,26726794	1,26795852	0,10105210348653282	8	0,00495096343	0,000128129876
2	1	0	1	0	6208,14	1,33827329	1,33881187	0,10122599860187574	8	0,00567332748	0,000135522569
2	1	0	0	0	6215,24	1,40927863	1,40981567	0,099216808681375834	8	0,00638979208	0,000139877418
2	1	0	1	0	6222,34	1,48028421	1,48080945	0,096590521454345434	8	0,00708718738	0,000143032157
2	1	0	1	0	6229,44	1,55128956	1,55187333	0,098509149703507328	8	0,00778007833	0,000152873719
2	1	0	0	0	6236,54	1,6222949	1,622877	0,10546307956489437	8	0,00850546639	0,000171153602
2	1	0	1	0	6243,64	1,69330025	1,69385076	0,11383175023365755	8	0,00928585231	0,000192813997
2	1	0	0	0	6250,74	1,76430583	1,76475418	0,12309267693975291	8	0,0101303915	0,000217228313
2	1	0	0	0	6257,84	1,83531117	1,83604872	0,13253827431860066	8	0,011041604	0,000243346731
2	1	0	1	0	6264,94	1,90631664	1,90679181	0,14149722550064302	8	0,0120191369	0,000269805751
2	1	0	0	0	6272,04	1,97732222	1,97793591	0,1508206267996376	8	0,0130610662	0,000298313535
2	1	0	1	0	6279,14	2,0483284	2,04904151	0,15881686827356755	8	0,0141639272	0,000325422356
2	1	0	1	0	6286,24	2,11933303	2,11978292	0,16650645679328634	8	0,015323366	0,000352957548
2	1	0	0	0	6293,34	2,19033837	2,1908567	0,17371543939225376	8	0,0165350251	0,00038058564
2	1	0	1	0	6300,45	2,26134396	2,2617805	0,17994360625743814	8	0,0177936554	0,000406992942
2	1	0	1	0	6307,55	2,3323493	2,33295465	0,18631613759013498	8	0,0190973617	0,000434667105
2	1	0	0	0	6314,65	2,40335464	2,40403843	0,19412464861913258	8	0,0204514973	0,000466683123
2	1	0	1	0	6321,75	2,47435999	2,47509241	0,20183297301021686	8	0,0218603294	0,000499555259
2	1	0	0	0	6328,85	2,54536533	2,54607606	0,20968087871248464	8	0,0233257562	0,000533863436
2	1	0	0	0	6335,95	2,61637092	2,61688948	0,21822172372291446	8	0,0248485245	0,000571062148
2	1	0	1	0	6343,05	2,6873765	2,68804336	0,22649092460051091	8	0,0264316797	0,000608817441
2	1	0	0	0	6350,15	2,75838184	2,7588768	0,23580600282487808	8	0,0280773174	0,000650559727
2	1	0	0	0	6357,25	2,82938719	2,83001089	0,24548216376359155	8	0,029787492	0,000694717222
2	1	0	1	0	6364,35	2,90039253	2,90115499	0,25951079605147155	8	0,031582132	0,000752881053
2	1	0	0	0	6371,45	2,97139788	2,97196841	0,27871113355892298	8	0,0334927142	0,000828320684
2	1	0	1	0	6378,55	3,04240346	3,04319263	0,30361783543291123	8	0,0355611257	0,000923967571
2	1	0	1	0	6385,65	3,1134088	3,11398602	0,33441608748398675	8	0,0378259495	0,00104136707
2	1	0	0	0	6392,75	3,18441415	3,1850493	0,3720568771629287	8	0,0403326713	0,0011850195
2	1	0	1	0	6399,85	3,25541973	3,25602317	0,41753269328425267	8	0,0431334525	0,00135949615
2	1	0	0	0	6406,95	3,32642603	3,32714915	0,4769968012979824	8	0,0463044345	0,00158703956
2	1	0	0	0	6414,05	3,39743042	3,39824128	0,55395821947604416	8	0,0499591939	0,00188248372
2	1	0	1	0	6421,15	3,468436	3,46917462	0,64410208227733709	8	0,0542126559	0,0022345027
2	1	0	0	0	6428,26	3,53944135	3,54037905	0,74570465553551872	8	0,0591432117	0,00264007715
2	1	0	0	0	6435,36	3,61044693	3,6112628	0,85136555011073152	8	0,0648194253	0,00307450467
2	1	0	1	0	6442,46	3,68145204	3,68230629	0,94151166329781158	8	0,0712004825	0,00346693443
2	1	0	0	0	6449,60	3,75285769	3,75359082	1,0188527110343174	8	0,0782076418	0,00382435624
2	1	0	1	0	6456,70	3,82386327	3,82451439	1,0915352497249842	8	0,0857059956	0,00417459244
2	1	0	1	0	6463,80	3,89486837	3,89575863	1,1622231031457614	8	0,0937082022	0,00452774065
2	1	0	0	0	6470,90	3,96587396	3,96664238	1,2405913705006242	8	0,102234505	0,00492098229
2	1	0	1	0	6478,00	4,03687954	4,03773594	1,3313013014073149	8	0,111358777	0,00537544303
2	1	0	1	0	6485,10	4,10788393	4,10868931	1,4410363163340136	8	0,121190391	0,00592077058
2	1	0	0	0	6492,20	4,17888975	4,1796937	1,6047256824870858	8	0,13195996	0,00670726178
2	0	0	1	1	6499,24	4,15068817	4,15140438	0,99039771532018867	8	0,141759172	0,00411154144
2	0	0	0	1	6506,38	4,07928228	4,0798893	0,47314912639558317	8	0,146773919	0,00193039607
2	0	0	0	1	6513,48	4,00827742	4,00893545	0,21244648797437459	8	0,149100393	0,00085168425
2	0	0	1	1	6520,58	3,93727183	3,93786192	0,076422571088187392	8	0,150073558	0,000300941523
2	0	0	0	1	6527,76	3,86546612	3,86625671	-0,0018522275786381283	8	0,150315627	7,16118711E-006
2	0	0	1	1	6534,90	3,79406095	3,79475188	-0,050340672042997306	8	0,150116593	0,000191030354
2	0	0	1	1	6542,00	3,72305536	3,72377801	-0,084792502573691341	8	0,14962773	0,000315748446
2	0	0	0	1	6549,14	3,65164971	3,65246344	-0,11193033497935811	8	0,148918435	0,000408821448
2	0	0	1	1	6556,25	3,58064461	3,58142948	-0,13462692844526214	8	0,148037061	0,000482156844
2	0	0	0	1	6563,35	3,50963831	3,51025581	-0,15436937139583939	8	0,14700523	0,000541876012
2	0	0	0	1	6570,45	3,43863368	3,43921185	-0,16906097034613366	8	0,14585121	0,000581436499
2	0	0	1	1	6577,55	3,3676281	3,36822772	-0,18141258884376544	8	0,144601867	0,000611038937
2	0	0	0	1	6584,65	3,29662251	3,2972343	-0,1917549028682215	8	0,143273026	0,000632260868
2	0	0	0	1	6591,75	3,22561741	3,22628045	-0,20159721638386486	8	0,141873166	0,000650409143
2	0	0	1	1	6598,85	3,15461183	3,15512633	-0,21140578769457898	8	0,140404418	0,000667011947
2	0	0	0	1	6605,95	3,08360648	3,08413291	-0,22198633438286742	8	0,138863251	0,000684635364
2	0	0	0	1	6613,05	3,01260138	3,01331067	-0,23313901967251827	8	0,137244523	0,000702520309
2	0	0	1	1	6620,15	2,94159579	2,9422555	-0,24413250479847203	8	0,135545686	0,000718300231
2	0	0	0	1	6627,25	2,87059045	2,87137222	-0,25342040679728096	8	0,133774385	0,00072766433
2	0	0	1	1	6634,35	2,79958487	2,80030823	-0,25922992980728576	8	0,131948054	0,000725923688
2	0	0	1	1	6641,45	2,72857952	2,72924447	-0,26038894817854086	8	0,130097583	0,000710665074
2	0	0	0	1	6648,55	2,65757418	2,65807033	-0,25844231760129331	8	0,128251702	0,00068695785
2	0	0	1	1	6655,65	2,58656859	2,58701634	-0,2568054572523888	8	0,126419201	0,00066435989
2	0	0	0	1	6662,75	2,51556253	2,51625299	-0,25534854467042045	8	0,1245986	0,00064252154
2	0	0	0	1	6669,85	2,44455791	2,44518924	-0,25509607116691811	8	0,122783832	0,000623758184
2	0	0	1	1	6676,95	2,37355232	2,3741653	-0,25461217140157942	8	0,12097162	0,00060449139
2	0	0	0	1	6684,06	2,30254698	2,30314136	-0,25340449088253082	8	0,119164877	0,000583626388
2	0	0	0	1	6691,16	2,23154163	2,23228836	-0,2513770728061593	8	0,117370032	0,000561146124
2	0	0	1	1	6698,26	2,16053605	2,16114402	-0,2473392243652297	8	0,115595043	0,000534535677
2	0	0	0	1	6705,36	2,08953071	2,0902307	-0,24286832373278867	8	0,11384894	0,000507650839
2	0	0	0	1	6712,46	2,01852584	2,0191462	-0,2394341885114768	8	0,11213278	0,000483452633
2	0	0	1	1	6719,56	1,9475199	1,94805276	-0,23690935682194979	8	0,110439144	0,000461511925
2	0	0	0	1	6726,66	1,87651455	1,87720931	-0,23471637559123382	8	0,10876175	0,000440611766
2	0	0	1	1	6733,76	1,80550897	1,80593503	-0,2320439338218423	8	0,107101247	0,000419056276
2	0	0	1	1	6740,86	1,73450351	1,73484099	-0,22863138684382099	8	0,105462588	0,000396639109
2	0	0	0	1	6747,96	1,66349816	1,66396749	-0,22708336884776726	8	0,103842989	0,000377859338
2	0	0	1	1	6755,06	1,59249258	1,59307396	-0,22732522703396762	8	0,102228969	0,000362145889
2	0	0	0	1	6762,16	1,52148736	1,52196014	-0,23010378587059722	8	0,100602999	0,000350208778
2	0	0	0	1	6769,26	1,45048189	1,45089626	-0,23503892628165613	8	0,0989492834	0,00034101709
2	0	0	1	1	6776,36	1,37947631	1,3799125	-0,23984928320472442	8	0,097259067	0,00033097103
2	0	0	0	1	6783,46	1,30847108	1,30889881	-0,24458847668332416	8	0,0955342725	0,000320141553
2	0	0	0	1	6790,56	1,23746562	1,23795509	-0,24814036372117709	8	0,0937817916	0,000307186623
2	0	0	1	1	6797,66	1,16646016	1,16702151	-0,25267911927464227	8	0,0920008942	0,00029488196
2	0	0	0	1	6804,76	1,09545457	1,09610808	-0,25980118941515683	8	0,0901798531	0,000284770183
2	0	0	1	1	6811,87	1,02444923	1,02475345	-0,27269455231726214	8	0,0882917419	0,000279444677
2	0	0	1	1	6818,97	0,953443944	0,954050422	-0,29540427642253683	8	0,0862772018	0,00028183058
2	0	0	0	1	6826,07	0,882438421	0,882896304	-0,32605072312677971	8	0,0840690434	0,000287868985
2	0	0	1	1	6833,17	0,811433136	0,811712027	-0,3538039096941552	8	0,0816493928	0,000287186878
2	0	0	1	1	6840,27	0,740427673	0,741079271	-0,3752951672455929	8	0,0790545791	0,00027812348
2	0	0	0	1	6847,37	0,669422269	0,669885099	-0,39272080408409235	8	0,076323688	0,000263077818
2	0	0	1	1	6854,47	0,598416805	0,598831236	-0,41194703523069709	8	0,0734664351	0,000246686745
2	0	0	0	1	6861,57	0,527411401	0,527596891	-0,43920745529855411	8	0,070445925	0,000231724494
2	0	0	0	1	6868,67	0,456405967	0,456603169	-0,47466496657580134	8	0,0672031343	0,000216733533
2	0	0	1	1	6875,77	0,385400534	0,385749787	-0,52221197650457542	8	0,0636709332	0,000201443152
2	0	0	0	1	6882,87	0,31439513	0,314555556	-0,59428485436365005	8	0,059723068	0,000186935606
2	0	0	0	1	6887,12	0,271791905	0,272643059	-0,65759420394897459	8	0,0570664629	0,000179288501