File: Experimentelles/Rohdaten/Batteriemessungen/AlteZelle/150511_LLTO_LTO_Tests/ECLab-Export/LLTO_LP30_LTO_02_CV_C01_loop9.mpt
EC-Lab ASCII FILE
Nb header lines : 3
mode	ox/red	error	control changes	counter inc.	time/s	control/V	Ewe/V	<I>/mA	cycle number	(Q-Qo)/C	P/W
2	1	0	0	0	7672,86	0,273992091	0,274487585	-0,72276681661605837	10	0	0,000198390524
2	1	0	0	0	7680,04	0,345797509	0,346243113	-0,080129174806643392	10	-0,00195415039	2,77441741E-005
2	1	0	1	0	7687,34	0,418803096	0,419031203	0,0096303617453183245	10	-0,00212174305	4,03542208E-006
2	1	0	0	0	7694,56	0,49100861	0,491368234	0,033574768002532954	10	-0,00195385353	1,64975736E-005
2	1	0	1	0	7701,77	0,56301409	0,563484669	0,049045740665557555	10	-0,00165327115	2,76365226E-005
2	1	0	1	0	7708,97	0,6350196	0,63545078	0,06468405760824681	10	-0,00124247978	4,11035362E-005
2	1	0	0	0	7716,17	0,70702517	0,707446933	0,080804868232613901	10	-0,00071637443	5,71651544E-005
2	1	0	1	0	7723,37	0,779030621	0,779252708	0,09163833622975881	10	-8,87179485E-005	7,14094203E-005
2	1	0	0	0	7730,57	0,851036131	0,851489484	0,096899555957255526	10	0,000595773221	8,25089519E-005
2	1	0	0	0	7737,70	0,922341526	0,92289418	0,097540395179142592	10	0,00129285967	9,00194646E-005
2	1	0	1	0	7744,90	0,994347095	0,994689822	0,097604309810170214	10	0,00199819799	9,70860128E-005
2	1	0	0	0	7752,14	1,06675255	1,06729758	0,099354403403898227	10	0,00271344627	0,000106040716
2	1	0	1	0	7759,34	1,13875806	1,13915324	0,10161803829638883	10	0,00344108371	0,000115758521
2	1	0	1	0	7766,54	1,21076357	1,21126986	0,10447264738225659	10	0,00418622419	0,000126544575
2	1	0	0	0	7773,74	1,28276908	1,28312564	0,10708907553149994	10	0,00495151384	0,000137408744
2	1	0	1	0	7780,94	1,35477459	1,35533249	0,10731867910362736	10	0,00572900707	0,00014545249
2	1	0	0	0	7788,14	1,4267801	1,42721832	0,10653794587900245	10	0,00650305534	0,000152052904
2	1	0	0	0	7795,34	1,49878561	1,49930465	0,10609565349295714	10	0,00727103651	0,000159069707
2	1	0	1	0	7802,54	1,57079101	1,57150137	0,10992036468815014	10	0,00804905687	0,000172740009
2	1	0	0	0	7809,74	1,64279652	1,64342737	0,1179526691945889	10	0,00887027662	0,000193846645
2	1	0	1	0	7816,94	1,71480215	1,71533334	0,12774861045181707	10	0,00975829922	0,000219131456
2	1	0	1	0	7824,14	1,78680754	1,78709877	0,13845551339909456	10	0,0107208742	0,000247433665
2	1	0	0	0	7831,35	1,85881305	1,85956609	0,14880533555212112	10	0,0117590874	0,00027671337
2	1	0	1	0	7838,55	1,93081868	1,93125176	0,15888676055086125	10	0,0128709422	0,000306850328
2	1	0	0	0	7845,75	2,00282407	2,00351834	0,16844713555959312	10	0,0140532553	0,000337486912
2	1	0	0	0	7852,95	2,07482958	2,0754745	0,17711437710871315	10	0,015301438	0,000367596367
2	1	0	1	0	7860,15	2,14683509	2,14739037	0,18550192782034493	10	0,0166107584	0,000398345059
2	1	0	0	0	7867,35	2,2188406	2,21960711	0,19286709457325469	10	0,0179768372	0,000428089174
2	1	0	1	0	7874,55	2,29084611	2,29148316	0,19966581735449539	10	0,0193941984	0,00045753087
2	1	0	1	0	7881,75	2,36285114	2,36340928	0,20737971089051421	10	0,0208630264	0,000490123115
2	1	0	0	0	7888,95	2,43485713	2,43550539	0,21517749425644704	10	0,0223875456	0,000524065923
2	1	0	1	0	7896,15	2,5068624	2,50733137	0,22325067734345706	10	0,0239703804	0,000559763401
2	1	0	0	0	7903,35	2,57886815	2,5795579	0,2319158079723511	10	0,025613416	0,000598240236
2	1	0	0	0	7910,55	2,65087247	2,65157461	0,24067950021576778	10	0,0273189731	0,000638179656
2	1	0	1	0	7917,75	2,72287893	2,7237711	0,24963548096517574	10	0,0290882476	0,000679949881
2	1	0	0	0	7924,95	2,79488468	2,79563689	0,26035189294877069	10	0,0309240017	0,000727849372
2	1	0	1	0	7932,15	2,86688995	2,86752272	0,27609369119939808	10	0,0328574479	0,000791704922
2	1	0	0	0	7939,35	2,93889594	2,93938947	0,29629358201885882	10	0,0349198915	0,000870922231
2	1	0	0	0	7946,55	3,01090121	3,0114851	0,32243786177908442	10	0,0371472612	0,000971016823
2	1	0	1	0	7953,75	3,08290672	3,08361149	0,35413186694495379	10	0,0395828746	0,00109200506
2	1	0	0	0	7960,96	3,15491176	3,15552759	0,39328048548971494	10	0,0422728583	0,00124100747
2	1	0	0	0	7968,16	3,22691679	3,22763324	0,43857410468526938	10	0,0452672765	0,00141555641
2	1	0	1	0	7975,36	3,29892278	3,29955983	0,49379979399964211	10	0,0486212075	0,00162932195
2	1	0	0	0	7982,56	3,37092829	3,37163615	0,56389569475625837	10	0,0524239391	0,00190125115
2	1	0	1	0	7989,76	3,44293404	3,4435823	0,64889639057219123	10	0,0567881241	0,00223452807
2	1	0	0	0	7996,96	3,51493955	3,51566839	0,7439913055859488	10	0,0618008189	0,00261562667
2	1	0	0	0	8004,16	3,58694482	3,58733416	0,84957758026818202	10	0,0675375387	0,00304771867
2	1	0	1	0	8011,36	3,65895057	3,65975118	0,94828666374087155	10	0,0740259215	0,00347049325
2	1	0	0	0	8018,60	3,73135614	3,73212838	1,0333434082567674	10	0,0812110305	0,00385657023
2	1	0	1	0	8025,80	3,80336142	3,80410433	1,1131081348285078	10	0,0889451355	0,00423437962
2	1	0	1	0	8033,00	3,87536716	3,87627125	1,1932190501441565	10	0,0972494036	0,00462524081
2	1	0	0	0	8040,20	3,94737267	3,94791651	1,2792239223296451	10	0,106147997	0,00505026942
2	1	0	1	0	8047,40	4,01937771	4,02009296	1,3818371631205011	10	0,11572206	0,00555511378
2	1	0	0	0	8054,60	4,09138346	4,09230947	1,4992330238843952	10	0,126091883	0,00613532541
2	1	0	0	0	8061,80	4,16338778	4,16440773	1,6411388501859888	10	0,137368932	0,00683437148
2	0	0	0	1	8068,94	4,16518879	4,16595936	1,2036049266799474	10	0,148564473	0,00501416903
2	0	0	0	1	8076,14	4,09318352	4,0939436	0,59651674004271629	10	0,154790282	0,00244210591
2	0	0	1	1	8083,39	4,02077818	4,02143621	0,28382187856671658	10	0,157846779	0,00114137155
2	0	0	0	1	8090,59	3,94877267	3,9495604	0,1215274274970095	10	0,159243181	0,000479979906
2	0	0	1	1	8097,83	3,87636709	3,87706327	0,02953617578411161	10	0,15975602	0,000114513619
2	0	0	1	1	8105,11	3,80356145	3,80431509	-0,027515728337069363	10	0,159745082	0,000104678504
2	0	0	0	1	8112,31	3,73155618	3,7321384	-0,066223629905531994	10	0,159397274	0,000247155753
2	0	0	1	1	8119,51	3,65955067	3,66020226	-0,096378800653232013	10	0,158805519	0,000352765899
2	0	0	0	1	8126,75	3,58714485	3,58780527	-0,12130254801983642	10	0,15801309	0,00043520992
2	0	0	0	1	8133,95	3,51513958	3,51563835	-0,14252747727247584	10	0,157056659	0,000501075061
2	0	0	1	1	8141,15	3,44313407	3,44386315	-0,1596304735867311	10	0,155962408	0,000549745513
2	0	0	0	1	8148,35	3,37112832	3,37189674	-0,17301692541999136	10	0,154760301	0,000583395187
2	0	0	1	1	8155,55	3,29912305	3,29973006	-0,18445168955562029	10	0,153468728	0,000608640781
2	0	0	1	1	8162,75	3,22711754	3,22789431	-0,19553348530704762	10	0,152097017	0,000631161442
2	0	0	0	1	8169,95	3,15511179	3,15584826	-0,20640285941772118	10	0,150646821	0,000651376089
2	0	0	1	1	8177,15	3,08310652	3,08366156	-0,21872354283308003	10	0,149113461	0,000674469396
2	0	0	0	1	8184,35	3,01110125	3,01165533	-0,2317109589930615	10	0,147488579	0,000697833544
2	0	0	0	1	8191,55	2,93909597	2,93977094	-0,24461710089595011	10	0,145768166	0,000719118223
2	0	0	1	1	8198,75	2,86709023	2,86797357	-0,25570354090693059	10	0,143961832	0,000733350986
2	0	0	0	1	8205,95	2,79508471	2,79564667	-0,26247650097745235	10	0,14208962	0,000733791559
2	0	0	1	1	8213,16	2,72307897	2,72374058	-0,26411109634985587	10	0,140186593	0,000719370088
2	0	0	1	1	8220,36	2,65107465	2,65154481	-0,26361561714550064	10	0,138282239	0,000698988617
2	0	0	0	1	8227,56	2,57906818	2,57978845	-0,26285121853773853	10	0,136383593	0,000678100565
2	0	0	1	1	8234,76	2,50706244	2,50764227	-0,26334733647915254	10	0,134486899	0,000660380931
2	0	0	0	1	8241,96	2,43505716	2,43557572	-0,26391937622490013	10	0,132586762	0,00064279564
2	0	0	0	1	8249,16	2,36305189	2,36365938	-0,26458495711941686	10	0,130679742	0,000625388697
2	0	0	1	1	8256,36	2,29104614	2,29153323	-0,26491024787537776	10	0,128769025	0,000607050664
2	0	0	0	1	8263,56	2,21904063	2,21976757	-0,26388909698774432	10	0,126860827	0,000585772446
2	0	0	1	1	8270,76	2,14703488	2,14766121	-0,26121998570549021	10	0,124965109	0,000561012013
2	0	0	1	1	8277,96	2,07503033	2,07599521	-0,25769195988823856	10	0,123092316	0,000534967287
2	0	0	0	1	8285,16	2,0030241	2,00371909	-0,25419625826179981	10	0,121246189	0,000509337871
2	0	0	1	1	8292,36	1,93101847	1,93150222	-0,25167126099889446	10	0,119421728	0,000486103614
2	0	0	0	1	8299,56	1,85901308	1,85945606	-0,24959479714743792	10	0,117613293	0,000464110548
2	0	0	1	1	8306,76	1,78700757	1,78768039	-0,2474092337458087	10	0,115819402	0,000442288641
2	0	0	1	1	8313,96	1,71500218	1,71566391	-0,24536731901268176	10	0,114041828	0,000420967845
2	0	0	0	1	8321,16	1,64299655	1,64326704	-0,24466989484305123	10	0,112275481	0,00040205798
2	0	0	1	1	8328,36	1,57099104	1,57166171	-0,2466005409757297	10	0,110504098	0,000387572625
2	0	0	0	1	8335,56	1,49898565	1,49938488	-0,25139471283182547	10	0,108708389	0,000376937445
2	0	0	0	1	8342,76	1,42698014	1,42764938	-0,25774517903725357	10	0,106872663	0,00036796974
2	0	0	1	1	8349,97	1,35497451	1,35538244	-0,26432327056924576	10	0,104989402	0,000358259131
2	0	0	0	1	8357,17	1,28296912	1,28333616	-0,2699545580738536	10	0,103061549	0,000346442452
2	0	0	1	1	8364,37	1,21096361	1,21158063	-0,27383860084228218	10	0,101099819	0,000331777555
2	0	0	1	1	8371,57	1,1389581	1,13948405	-0,2789984063711023	10	0,0991070569	0,000317914237
2	0	0	0	1	8378,77	1,06695247	1,06721723	-0,28713805003402192	10	0,0970681384	0,000306438684
2	0	0	1	1	8385,97	0,994947076	0,995281339	-0,30251549549090394	10	0,0949463099	0,000301088032
2	0	0	0	1	8393,17	0,922941685	0,923525691	-0,32786065316759072	10	0,0926786363	0,000302787725
2	0	0	0	1	8400,37	0,850936115	0,851268828	-0,35854929258736499	10	0,0902036503	0,000305221824
2	0	0	1	1	8407,57	0,778930604	0,779082298	-0,38607282051816582	10	0,0875151679	0,0003007825
2	0	0	0	1	8414,77	0,706925094	0,707356751	-0,40622728069623373	10	0,0846548527	0,000287347619
2	0	0	1	1	8421,97	0,634919584	0,635400593	-0,42366366305699008	10	0,0816634744	0,000269196142
2	0	0	1	1	8429,17	0,562914133	0,56317389	-0,44817400816828013	10	0,0785265192	0,000252399914
2	0	0	0	1	8436,37	0,490908593	0,491157711	-0,48346264613792301	10	0,0751752481	0,000237456406
2	0	0	1	1	8443,57	0,418903112	0,419462264	-0,52841173702230118	10	0,0715339482	0,000221648777
2	0	0	0	1	8450,77	0,346897602	0,34717539	-0,59152461805691379	10	0,0675123408	0,000205362783
2	0	0	0	1	8457,97	0,274891347	0,275328577	-0,69129961807311629	10	0,0629195273	0,00019033454
2	0	0	0	1	8458,12	0,273392051	0,273846	-0,69429927638598835	10	0,0628169775	0,000190131075