File: Experimentelles/Rohdaten/Batteriemessungen/AlteZelle/150511_LLTO_LTO_Tests/ECLab-Export/LLTO_LP30_LTO_05_GCPL_C01_loop5.mpt
EC-Lab ASCII FILE
Nb header lines : 3
mode	ox/red	error	control changes	Ns changes	counter inc.	Ns	time/s	control/V/mA	Ewe/V	dq/mA.h	<I>/mA	P/W	(Q-Qo)/mA.h	x	Capacity/mA.h
1	0	0	1	1	0	1	203052,67	-0,0100000007	2,59785438	0	0	0	0	0	0
1	0	0	1	0	0	1	203742,67	-0,0100000007	1,85911059	-2,7757395633599827E-005	-0,0099926608646223104	1,85774625E-005	-0,001915124905027216	7,1455885119385702E-005	0,001915124905027216
1	0	0	1	0	0	1	204432,67	-0,0100000007	1,50539649	-2,7756697454438029E-005	-0,0099924095201633869	1,50425385E-005	-0,0038303554875104819	0,00014291571320674149	0,0038303554875104819
1	0	0	1	0	0	1	205122,67	-0,0100000007	1,26420879	-2,7757062264355936E-005	-0,0099925408517132864	1,26326577E-005	-0,005745586059184768	0,00021437554089079971	0,005745586059184768
1	0	0	1	0	0	1	205812,67	-0,0100000007	1,07199943	-2,7756453310242957E-005	-0,0099923216282669146	1,0711763E-005	-0,0076608111542177907	0,00028583516423400896	0,0076608111542177907
1	0	0	1	0	0	1	206502,67	-0,0100000007	0,906217396	-2,7757977414617523E-005	-0,0099928703057559117	9,05571324E-006	-0,0095760712656278554	0,0003572960940853257	0,0095760712656278554
1	1	0	0	0	0	2	207180,74	0,0100000007	1,54705524	2,7795751153646659E-005	0,010006468849678742	1,54805603E-005	-0,0078473088320619136	0,00029279364334316787	0,0018066833739405392
1	1	0	0	0	0	2	207870,74	0,0100000007	1,90281236	2,7795410937836602E-005	0,010006346372006285	1,90401988E-005	-0,0059294329605932186	0,0002212351159671369	0,0037245592454092378
1	1	0	0	0	0	2	208560,74	0,0100000007	2,11203527	2,7795364966046893E-005	0,010006329822164579	2,1133721E-005	-0,004011542093161623	0,00014967602907156778	0,0056424501128408326
1	1	0	0	0	0	2	209250,74	0,0100000007	2,22582841	2,7795675124662618E-005	0,01000644147924877	2,22726212E-005	-0,0020936511577331309	7,8116939638943027E-005	0,0075603410482693222
1	1	0	0	0	0	2	209940,74	0,0100000007	2,29504728	2,779505965237816E-005	0,010006219909261032	2,29647485E-005	-0,0001757567582710177	6,5577209585664128E-006	0,0094782354477314368
1	1	0	0	0	0	2	210630,74	0,0100000007	2,34013033	2,7794950895684048E-005	0,010006180756857277	2,34157669E-005	0,0017421005715014573	-6,5000114601849062E-005	0,011396092777503912
1	1	0	0	0	0	2	211320,74	0,0100000007	2,36953664	2,7794108263165174E-005	0,010005877409197944	2,37092936E-005	0,003659915001653833	-0,00013655634951975949	0,013313907207656298
1	1	0	0	0	0	2	212010,74	0,0100000007	2,39019728	2,7793475882201974E-005	0,010005649752086813	2,3915476E-005	0,0055776792780673907	-0,00020811071313424214	0,015231671484069856
1	1	0	0	0	0	2	212700,74	0,0100000007	2,40604615	2,7792683474616045E-005	0,010005364485400512	2,4073368E-005	0,007495400817661984	-0,00027966348218054906	0,017149393023664454
1	1	0	0	0	0	2	213390,74	0,0100000007	2,41967988	2,7791661626659334E-005	0,010004996620659547	2,42088881E-005	0,009413091740497929	-0,00035121510887442605	0,019067083946500406
1	1	0	0	0	0	2	214080,74	0,0100000007	2,43121314	2,7792143975901936E-005	0,010005170265893821	2,43247014E-005	0,011330772357074261	-0,00042276635102789997	0,02098476456307673
1	1	0	0	0	0	2	214770,74	0,0100000007	2,44146705	2,779278222274863E-005	0,01000540003472268	2,44278544E-005	0,01324846611481557	-0,00049431808349590778	0,022902458320818016
1	1	0	0	0	0	2	215460,74	0,0100000007	2,45017433	2,7792567060070317E-005	0,010005322576170606	2,45147839E-005	0,015166182423861942	-0,00056587065738342784	0,024820174629864387
1	1	0	0	0	0	2	216150,74	0,0100000007	2,45838523	2,7793644215601187E-005	0,010005710352101046	2,45978899E-005	0,017083909635048698	-0,000637423638044464	0,026737901841051142
1	1	0	0	0	0	2	216840,74	0,0100000007	2,4659276	2,77930490984064E-005	0,010005496109944445	2,46728287E-005	0,019001686050269229	-0,00070897845457415565	0,028655678256271674
1	1	0	0	0	0	2	217530,74	0,0100000007	2,4726491	2,7793758804133782E-005	0,010005751603966326	2,47407133E-005	0,020919447785172509	-0,00078053272336147277	0,03057343999117495
1	1	0	0	0	0	2	218220,74	0,0100000007	2,4785111	2,7793783011742762E-005	0,010005760318704197	2,47993885E-005	0,022837238267758563	-0,00085208806476348595	0,032491230473760992
1	1	0	0	0	0	2	218910,74	0,0100000007	2,48433518	2,7793504549449101E-005	0,010005660072294165	2,48574142E-005	0,024754998366701222	-0,00092364227251091264	0,034408990572703648
1	1	0	0	0	0	2	219600,74	0,0100000007	2,4894526	2,779332861666464E-005	0,010005596736501667	2,49084587E-005	0,026672758167426688	-0,0009951964691314551	0,03632675037342912
1	1	0	0	0	0	2	220290,74	0,0100000007	2,49414992	2,779356960626319E-005	0,010005683492743571	2,49556742E-005	0,028590508097344112	-0,0010667502974588778	0,038244500303346515
1	1	0	0	0	0	2	220980,74	0,0100000007	2,49836993	2,7793665783014147E-005	0,010005718116368498	2,49979857E-005	0,030508225733241171	-0,0011383029208529813	0,040162217939243546
1	1	0	0	0	0	2	221670,74	0,0100000007	2,50228429	2,7793640403180483E-005	0,01000570897962981	2,50371286E-005	0,032426000319357274	-0,0012098576691363274	0,042079992525359622
1	1	0	0	0	0	2	222360,74	0,0100000007	2,50612235	2,7794246385236166E-005	0,010005927133135722	2,50760768E-005	0,034343765244771738	-0,0012814120569659064	0,04399775745077408
1	1	0	0	0	0	2	223050,74	0,0100000007	2,50934958	2,7793588949419142E-005	0,010005690456278626	2,51077745E-005	0,036261552378108928	-0,0013529672734029414	0,045915544584111277
1	1	0	0	0	0	2	223740,74	0,0100000007	2,51299667	2,7793867087250368E-005	0,010005790585882198	2,51445181E-005	0,038179318936851142	-0,0014245217221741747	0,047833311142853491
1	1	0	0	0	0	2	224430,74	0,0100000007	2,51631904	2,7794623694123907E-005	0,010006062964314058	2,51784459E-005	0,040097128072855994	-0,0014960777595603232	0,049751120278858342
1	1	0	0	0	0	2	225120,74	0,0100000007	2,51952696	2,7794184747100291E-005	0,010005904943410278	2,52101472E-005	0,042014930497332371	-0,00156763354653032	0,051668922703334714
1	1	0	0	0	0	2	225810,74	0,0100000007	2,52242947	2,7794043409845066E-005	0,01000585406200636	2,52390619E-005	0,043932698587222029	-0,0016391880524307232	0,053586690793224371
1	1	0	0	0	0	2	226500,74	0,0100000007	2,52535105	2,7794350149523878E-005	0,010005964488273454	2,52685732E-005	0,045850503107827699	-0,0017107439176101229	0,055504495313830042
1	1	0	0	0	0	2	227190,74	0,0100000007	2,52825356	2,7794903212019965E-005	0,010006163590740893	2,5298119E-005	0,047768320649959539	-0,0017823002686401712	0,057422312855961882
1	1	0	0	0	0	2	227880,75	0,0100000007	2,53056383	2,779420813985376E-005	0,010005913364800211	2,53206017E-005	0,049686109609662688	-0,0018538555532213754	0,059340101815665024
1	1	0	0	0	0	2	228570,75	0,0100000007	2,53342819	2,7794207823773229E-005	0,010005913251011235	2,53492635E-005	0,051603904073906637	-0,0019254110431843981	0,061257896279908979
1	1	0	0	0	0	2	229260,75	0,0100000007	2,53577685	2,7794239319395277E-005	0,010005924589433398	2,53727922E-005	0,053521680068584384	-0,001996965844023073	0,063175672274586726
1	1	0	0	0	0	2	229950,75	0,0100000007	2,53858376	2,7794972949350877E-005	0,010006188696176093	2,54015486E-005	0,055439522593517165	-0,0020685231271950141	0,065093514799519565
1	1	0	0	0	0	2	230640,75	0,0100000007	2,54102802	2,7794159162427402E-005	0,01000589573292948	2,54252609E-005	0,057357363000123981	-0,0021400803313293654	0,067011355206126374
1	1	0	0	0	0	2	231330,75	0,0100000007	2,54333854	2,7794994047480739E-005	0,010006196291501654	2,54491442E-005	0,059275216360624256	-0,0022116380187908986	0,068929208566626688
1	1	0	0	0	0	2	232020,75	0,0100000007	2,54553437	2,7795824447336294E-005	0,010006495235402882	2,5471878E-005	0,061193094324230899	-0,0022831966242274093	0,070847086530233357
1	1	0	0	0	0	2	232710,75	0,0100000007	2,54776835	2,7795471840124163E-005	0,010006368296826376	2,54939077E-005	0,06311098861351008	-0,0023547558387967126	0,072764980819512474
1	1	0	0	0	0	2	233400,75	0,0100000007	2,5498116	2,7795638860565507E-005	0,010006428424175851	2,55145078E-005	0,065028877240587827	-0,0024263148421016672	0,074682869446590221
1	1	0	0	0	0	2	234090,75	0,0100000007	2,55174017	2,7795690830020854E-005	0,01000644713317685	2,55338527E-005	0,066946769736282598	-0,0024978739897499248	0,076600761942284992
1	1	0	0	0	0	2	234780,75	0,0100000007	2,55403161	2,7794734097137632E-005	0,010006102709392778	2,55559025E-005	0,068864676074526797	-0,0025694336538823133	0,078518668280529203
1	1	0	0	0	0	2	235470,75	0,0100000007	2,55626559	2,7794431612775146E-005	0,01000599381503932	2,55779778E-005	0,070782537051225754	-0,0026409916255144586	0,080436529257228147
1	1	0	0	0	0	2	236160,75	0,0100000007	2,55834699	2,7795383486793274E-005	0,010006336489632232	2,55996802E-005	0,072700416867238106	-0,0027125503000667168	0,082354409073240499
1	1	0	0	0	0	2	236850,75	0,0100000007	2,56042838	2,7795532656988752E-005	0,010006390190894202	2,56206458E-005	0,074618314569361984	-0,0027841096419738442	0,084272306775364378
1	1	0	0	0	0	2	237540,75	0,0100000007	2,56250978	2,7795674214760464E-005	0,010006441151684045	2,56416024E-005	0,076536233514309709	-0,0028556697764792915	0,086190225720312115
1	1	0	0	0	0	2	238230,75	0,0100000007	2,56447649	2,7795702376506397E-005	0,010006451289910994	2,56613093E-005	0,07845414037466025	-0,002927229460092169	0,088108132580662643
1	1	0	0	0	0	2	238920,75	0,0100000007	2,5666914	2,7795992365779562E-005	0,010006555686033	2,56837411E-005	0,080372054385218752	-0,002998789410488919	0,090026046591221158
1	1	0	0	0	0	2	239610,75	0,0100000007	2,56844831	2,779499203365089E-005	0,010006195566523024	2,57003958E-005	0,082289959225159898	-0,0030703490187176058	0,091943951431162291
1	1	0	0	0	0	2	240300,75	0,0100000007	2,57052946	2,7796485451567504E-005	0,010006733196888886	2,5722602E-005	0,084207873100516685	-0,0031419089640697978	0,093861865306519078
1	1	0	0	0	0	2	240990,75	0,0100000007	2,57219076	2,7795496322369824E-005	0,010006377110433434	2,57383108E-005	0,086125771562977165	-0,0032134683343461069	0,095779763768979558
1	1	0	0	0	0	2	241680,75	0,0100000007	2,57411933	2,7796094922038416E-005	0,010006592606280411	2,57581632E-005	0,088043677455858099	-0,0032850279818613926	0,097697669661860493
1	1	0	0	0	0	2	242370,75	0,0100000007	2,57566619	2,7795175716073974E-005	0,010006261692184987	2,57727897E-005	0,089961596448987712	-0,0033565881181645702	0,099615588654990106
1	1	0	0	0	0	2	242530,75	0,0100000007	2,57610536	2,7795131953381414E-005	0,010006245937618131	2,57771444E-005	0,090406321592933696	-0,0033731814112245107	0,1000603137989361