File: Experimentelles/Rohdaten/Batteriemessungen/AlteZelle/150511_LLTO_LTO_Tests/ECLab-Export/LLTO_LP30_LTO_05_GCPL_C01_loop7.mpt
EC-Lab ASCII FILE
Nb header lines : 3
mode	ox/red	error	control changes	Ns changes	counter inc.	Ns	time/s	control/V/mA	Ewe/V	dq/mA.h	<I>/mA	P/W	(Q-Qo)/mA.h	x	Capacity/mA.h
1	0	0	1	1	0	1	282313,29	-0,0100000007	2,5851562	0	0	0	0	0	0
1	0	0	1	0	0	1	283013,30	-0,0100000007	1,8047092	-2,7755239671044467E-005	-0,0099916938924296883	1,80321022E-005	-0,0019428171732246573	7,2489120878482829E-005	0,0019428171732246573
1	0	0	1	0	0	1	283713,31	-0,0100000007	1,46692026	-2,775674971136161E-005	-0,0099922374964768141	1,46578159E-005	-0,0038857673541630208	0,00014498320445359482	0,0038857673541630208
1	0	0	1	0	0	1	284413,33	-0,0100000007	1,24331892	-2,7755996205171363E-005	-0,0099919662394713536	1,2423201E-005	-0,0058287157933936448	0,00021747722304324928	0,0058287157933936448
1	0	0	1	0	0	1	285113,34	-0,0100000007	1,0714457	-2,7756122780498115E-005	-0,0099920118054789722	1,07058977E-005	-0,0077716226151483046	0,00028996968882892026	0,0077716226151483046
1	0	0	1	0	0	1	285813,36	-0,0100000007	0,928157449	-2,7757171479105536E-005	-0,009992389329941088	9,27451038E-006	-0,009714584035374519	0,00036246419175697331	0,009714584035374519
1	1	0	0	0	0	2	286501,18	0,0100000007	1,4283421	2,7797144698186051E-005	0,010006779411730371	1,4293104E-005	-0,0086794102395390989	0,00032384046562838272	0,0014732112866778243
1	1	0	0	0	0	2	287201,19	0,0100000007	1,77821815	2,7796611561232973E-005	0,010006587485889795	1,77938946E-005	-0,0067336465993611456	0,00025124140810630544	0,0034189749268557786
1	1	0	0	0	0	2	287901,20	0,0100000007	1,99987185	2,7797422916835382E-005	0,010006879568515621	2,00124759E-005	-0,0047878655747986938	0,00017864170194946902	0,005364755951418231
1	1	0	0	0	0	2	288601,22	0,0100000007	2,13569403	2,7797441543856016E-005	0,010006886273764456	2,13716467E-005	-0,0028420727367362234	0,00010604155501506347	0,0073105487894807027
1	1	0	0	0	0	2	289301,23	0,0100000007	2,22401428	2,7797743077027712E-005	0,010006994823965629	2,22556992E-005	-0,00089625996522889178	3,3440664337029344E-005	0,009256361560988032
1	1	0	0	0	0	2	290001,24	0,0100000007	2,28427792	2,7796836058764406E-005	0,010006668303211994	2,2858012E-005	0,001049577666521805	-3,9161153910109696E-005	0,01120219919273873
1	1	0	0	0	0	2	290701,26	0,0100000007	2,32487369	2,779678310898857E-005	0,010006649241659722	2,3264196E-005	0,0029953887806971546	-0,0001117619827508593	0,013148010306914082
1	1	0	0	0	0	2	291401,27	0,0100000007	2,35403156	2,7796499283984304E-005	0,010006547067091518	2,35557272E-005	0,0049411539271258208	-0,00018436109647317581	0,015093775453342752
1	1	0	0	0	0	2	292101,28	0,0100000007	2,37734628	2,7794898344462531E-005	0,010005970739960805	2,37876575E-005	0,0068868440929234355	-0,00025695741256733526	0,017039465619140358
1	1	0	0	0	0	2	292801,30	0,0100000007	2,39718604	2,7794038125572518E-005	0,010005661067123123	2,39854307E-005	0,0088324462569875046	-0,00032955044519849658	0,018985067783204429
1	1	0	0	0	0	2	293501,31	0,0100000007	2,41416144	2,7793337852901056E-005	0,010005408973466003	2,41546732E-005	0,010777990818304438	-0,0004021413285937145	0,020930612344521363
1	1	0	0	0	0	2	294201,33	0,0100000007	2,42918897	2,7793518771986579E-005	0,010005474103432154	2,43051873E-005	0,012723519721662024	-0,00047473162776941683	0,022876141247878947
1	1	0	0	0	0	2	294901,34	0,0100000007	2,44253635	2,7793675055365184E-005	0,010005530363899242	2,44388721E-005	0,014669063656039962	-0,00054732248777269792	0,024821685182256906
1	1	0	0	0	0	2	295601,35	0,0100000007	2,45429897	2,7795245936657821E-005	0,010006095870741728	2,45579504E-005	0,016614671657612102	-0,00061991573820913395	0,026767293183829046
1	1	0	0	0	0	2	296301,37	0,0100000007	2,46556497	2,7794819882139562E-005	0,01000594249406841	2,46703021E-005	0,018560320415448102	-0,00069251050931657203	0,028712941941665046
1	1	0	0	0	0	2	297001,38	0,0100000007	2,47600985	2,7794931040404157E-005	0,010005982510040189	2,47749103E-005	0,020505994807769914	-0,0007651062368811415	0,030658616333986861
1	1	0	0	0	0	2	297701,39	0,0100000007	2,48534727	2,7795648454429789E-005	0,010006240774349533	2,4868983E-005	0,022451705417379738	-0,00083770331576142157	0,032604326943596704
1	1	0	0	0	0	2	298401,41	0,0100000007	2,4942646	2,7796469844308579E-005	0,010006536468662854	2,49589502E-005	0,024397444939025878	-0,00091030147338864922	0,034550066465242886
1	1	0	0	0	0	2	299101,42	0,0100000007	2,50257087	2,7796149317899514E-005	0,01000642108172683	2,50417779E-005	0,026343173045629978	-0,00098289920510531046	0,036495794571847008
1	1	0	0	0	0	2	299801,43	0,0100000007	2,51041889	2,7796343524836832E-005	0,010006490994412139	2,51204838E-005	0,028288895707816598	-0,0010554967336834358	0,038441517234033613
1	1	0	0	0	0	2	300501,45	0,0100000007	2,51702571	2,7796601003035904E-005	0,010006583685245014	2,51868278E-005	0,03023462922910631	-0,0011280946674292974	0,040387250755323328
1	1	0	0	0	0	2	301201,46	0,0100000007	2,5221622	2,7796565447830493E-005	0,010006570885617523	2,52381942E-005	0,032180382616018739	-0,0012006933423882522	0,042333004142235776
1	1	0	0	0	0	2	301901,47	0,0100000007	2,52785254	2,7796804886414774E-005	0,0100066570813822	2,52953541E-005	0,03412616640687513	-0,001273293151759235	0,044278787933092173
1	1	0	0	0	0	2	302601,49	0,0100000007	2,53346634	2,7796142570674419E-005	0,010006418652772566	2,53509243E-005	0,03607192645905129	-0,0013458920754081411	0,046224547985268333
1	1	0	0	0	0	2	303301,50	0,0100000007	2,5386219	2,7796781669577789E-005	0,010006648723540062	2,54030983E-005	0,038017680778434182	-0,0014184907851588229	0,048170302304651226
1	1	0	0	0	0	2	304001,51	0,0100000007	2,54354835	2,7796373289906317E-005	0,010006501710096789	2,54520201E-005	0,03996342953855145	-0,0014910892874858294	0,050116051064768493
1	1	0	0	0	0	2	304701,53	0,0100000007	2,5471766	2,7796520099302547E-005	0,010006554559995843	2,54884617E-005	0,04190918261568873	-0,001563687950886657	0,052061804141905773
1	1	0	0	0	0	2	305401,54	0,0100000007	2,55105281	2,7797142582583341E-005	0,010006778650128064	2,5527821E-005	0,043854957526932531	-0,0016362874289473552	0,054007579053149574
1	1	0	0	0	0	2	306101,55	0,0100000007	2,55498624	2,7797343428608854E-005	0,010006850953305056	2,55673658E-005	0,045800764678998624	-0,0017088881099564813	0,055953386205215667
1	1	0	0	0	0	2	306801,57	0,0100000007	2,55867171	2,779656409420487E-005	0,010006570397855723	2,56035291E-005	0,047746566970806765	-0,0017814886096228486	0,057899188497023808
1	1	0	0	0	0	2	307501,58	0,0100000007	2,5623951	2,7796458593880134E-005	0,010006532418936067	2,56406893E-005	0,04969235271705488	-0,0018540884919521254	0,059844974243271923
1	1	0	0	0	0	2	308201,59	0,0100000007	2,56541204	2,7796782234424931E-005	0,010006648926939363	2,56711774E-005	0,05163811089209111	-0,001926687345562417	0,061790732418308147
1	1	0	0	0	0	2	308901,61	0,0100000007	2,56877279	2,7796163418537213E-005	0,010006426157858662	2,57042357E-005	0,053583885176760115	-0,001999286800244767	0,06373650670297719
1	1	0	0	0	0	2	309601,62	0,0100000007	2,57198071	2,7796625137432582E-005	0,010006592373227549	2,57367628E-005	0,055529639140105741	-0,0020718854967112192	0,065682260666322778
1	1	0	0	0	0	2	310301,64	0,0100000007	2,57492137	2,7796329711977805E-005	0,01000648602234459	2,5765914E-005	0,0574754075865792	-0,0021444847335626442	0,067628029112796275
1	1	0	0	0	0	2	311001,65	0,0100000007	2,57811022	2,7796878083816006E-005	0,010006683431939267	2,5798332E-005	0,05942119913706295	-0,0022170848324557565	0,069573820663280013
1	1	0	0	0	0	2	311701,66	0,0100000007	2,58112717	2,7797842505232742E-005	0,010007030616964259	2,58294185E-005	0,061366985910546918	-0,0022896847531125843	0,071519607436763904
1	1	0	0	0	0	2	312401,68	0,0100000007	2,58412504	2,7797468379657299E-005	0,010006895934816381	2,58590699E-005	0,063312781983086694	-0,002362285020729687	0,073465403509303642
1	1	0	0	0	0	2	313101,69	0,0100000007	2,58714223	2,7796472453460509E-005	0,010006537407939466	2,58883356E-005	0,06525858862399767	-0,002434885682666928	0,075411210150214605
1	1	0	0	0	0	2	313801,70	0,0100000007	2,58989191	2,7797011353799866E-005	0,010006731408675642	2,59163535E-005	0,067204372161545344	-0,0025074854825866224	0,077356993687762291
1	1	0	0	0	0	2	314501,72	0,0100000007	2,59235501	2,7796318506201107E-005	0,010006481988109677	2,59403532E-005	0,069150147081899622	-0,0025800849609872445	0,07930276860811657
1	1	0	0	0	0	2	315201,73	0,0100000007	2,59512377	2,7796769789937472E-005	0,01000664444735961	2,59684803E-005	0,071095929319840576	-0,002652684712416864	0,081248550846057523
1	1	0	0	0	0	2	315901,74	0,0100000007	2,59779716	2,7796819945900803E-005	0,010006662502692784	2,59952794E-005	0,073041684132878016	-0,0027252834405864605	0,08319430565909495
1	1	0	0	0	0	2	316601,76	0,0100000007	2,60045123	2,7797355256974698E-005	0,010006855210968798	2,60223387E-005	0,074987457368821504	-0,0027978828561394522	0,085140078895038451
1	1	0	0	0	0	2	317301,77	0,0100000007	2,60293365	2,7797159824054688E-005	0,010006784856938235	2,60469969E-005	0,076933240636623936	-0,0028704826459945878	0,087085862162840883
1	1	0	0	0	0	2	318001,78	0,0100000007	2,60551143	2,7797456383549917E-005	0,010006891615834902	2,60730703E-005	0,078879038499462554	-0,0029430829804101472	0,089031660025679501
1	1	0	0	0	0	2	318701,80	0,0100000007	2,60782194	2,7796817077582496E-005	0,010006661470584038	2,60955912E-005	0,080824826228558592	-0,0030156829367221466	0,090977447754775539
1	1	0	0	0	0	2	319401,81	0,0100000007	2,61005592	2,7797121907739587E-005	0,010006771207094638	2,61182322E-005	0,082770626190534323	-0,0030882833494593338	0,09292324771675127
1	1	0	0	0	0	2	320101,82	0,0100000007	2,61229014	2,7796645131738237E-005	0,010006599571271971	2,61401419E-005	0,084716424821147251	-0,0031608837125215846	0,094869046347364186
1	1	0	0	0	0	2	320801,84	0,0100000007	2,61461973	2,7797485571406368E-005	0,010006902123260906	2,61642435E-005	0,086662221358053632	-0,0032334839974648301	0,096814842884270566
1	1	0	0	0	0	2	321501,85	0,0100000007	2,61694932	2,7797581738067997E-005	0,010006936742592499	2,61876467E-005	0,088608023442382874	-0,0033060844893898803	0,098760644968599821
1	1	0	0	0	0	2	321971,14	0,0100000007	2,61836243	2,5796079257451411E-005	0,010006891500973304	2,62016692E-005	0,089912508655993728	-0,0033547565866087251	0,10006513018221067