File: Experimentelles/Rohdaten/Batteriemessungen/AlteZelle/150511_LLTO_LTO_Tests/ECLab-Export/LLTO_LP30_LTO_05_GCPL_C01_loop10.mpt
EC-Lab ASCII FILE
Nb header lines : 3
mode	ox/red	error	control changes	Ns changes	counter inc.	Ns	time/s	control/V/mA	Ewe/V	dq/mA.h	<I>/mA	P/W	(Q-Qo)/mA.h	x	Capacity/mA.h
1	0	0	1	1	0	1	401163,94	-0,0100000007	2,68238759	0	0	0	0	0	0
1	0	0	1	0	0	1	401853,96	-0,0100000007	1,80887187	-2,7753580887750208E-005	-0,0099910967419418317	1,80726147E-005	-0,001914884076199009	7,1446899472007514E-005	0,001914884076199009
1	0	0	1	0	0	1	402543,97	-0,0100000007	1,4591105	-2,7754193557322854E-005	-0,0099913172983922483	1,45784361E-005	-0,003829891781582633	0,00014289841171511421	0,003829891781582633
1	0	0	1	0	0	1	403233,98	-0,0100000007	1,21843827	-2,7753496813122182E-005	-0,0099910664756585178	1,21734975E-005	-0,0057448797009704531	0,00021434918571611491	0,0057448797009704531
1	0	0	1	0	0	1	403923,99	-0,0100000007	1,04305148	-2,7753786643190931E-005	-0,009991170812474272	1,04213059E-005	-0,0076598696077089638	0,00028580003386784192	0,0076598696077089638
1	0	0	1	0	0	1	404614,01	-0,0100000007	0,910227358	-2,7755618297494947E-005	-0,0099918301953273626	9,09483697E-006	-0,0095749662424265229	0,00035725486418396448	0,0095749662424265229
1	1	0	0	0	0	2	405288,36	0,0100000007	1,47630858	2,7799232393813629E-005	0,01000753096768516	1,47742039E-005	-0,0080578246376508032	0,00030064827109120032	0,0016957203595917155
1	1	0	0	0	0	2	405978,37	0,0100000007	1,79727483	2,7799107683408592E-005	0,010007486072454294	1,79862036E-005	-0,0061396807896026458	0,00022907974514869117	0,0036138642076398765
1	1	0	0	0	0	2	406668,39	0,0100000007	2,01260829	2,7798450036698746E-005	0,010007249324546814	2,01406729E-005	-0,0042215696818258291	0,00015751244078972557	0,0055319753154166925
1	1	0	0	0	0	2	407358,40	0,0100000007	2,15312767	2,7798725974746048E-005	0,010007348659865149	2,15470991E-005	-0,0023034650175333347	8,5945376845823373E-005	0,007450079979709184
1	1	0	0	0	0	2	408048,41	0,0100000007	2,24830294	2,7799181501432842E-005	0,010007512646780843	2,24999203E-005	-0,00038534471811560154	1,4377729534376866E-005	0,0093682002791269133
1	1	0	0	0	0	2	408738,43	0,0100000007	2,31629992	2,7798580841782192E-005	0,010007296413470163	2,31799004E-005	0,0015327733501153581	-5,7189834528491258E-005	0,011286318347357877
1	1	0	0	0	0	2	409428,44	0,0100000007	2,3639226	2,7798375958059395E-005	0,01000722265698313	2,36562992E-005	0,0034508867241356915	-0,00012875722344404949	0,013204431721378218
1	1	0	0	0	0	2	410118,45	0,0100000007	2,39982104	2,7798865693569597E-005	0,010007398958139139	2,40159661E-005	0,0053689938475180806	-0,00020032437913990192	0,015122538844760608
1	1	0	0	0	0	2	410808,47	0,0100000007	2,43004823	2,7798888870980592E-005	0,010007407301496944	2,43184822E-005	0,0072871018624054336	-0,0002718915680990032	0,017040646859647971
1	1	0	0	0	0	2	411498,48	0,0100000007	2,45601749	2,779865540946937E-005	0,010007323257320672	2,45781612E-005	0,0092052237527617856	-0,00034345927477050861	0,018958768750004307
1	1	0	0	0	0	2	412188,49	0,0100000007	2,47879767	2,7798581197650896E-005	0,010007296541114437	2,48060642E-005	0,011123327082913069	-0,00041502628893580845	0,020876872080155587
1	1	0	0	0	0	2	412878,51	0,0100000007	2,49884725	2,7798034721571539E-005	0,010007099813513848	2,5006213E-005	0,013041433839211306	-0,00048659343093525766	0,022794978836453824
1	1	0	0	0	0	2	413568,52	0,0100000007	2,51672006	2,7797783616050662E-005	0,010007009417732888	2,51848414E-005	0,01495950289529279	-0,00055815916628893133	0,024713047892535296
1	1	0	0	0	0	2	414258,53	0,0100000007	2,53256893	2,7798083670799517E-005	0,010007117435129616	2,53437156E-005	0,016877565362313514	-0,0006297246557958889	0,026631110359556022
1	1	0	0	0	0	2	414948,55	0,0100000007	2,54692817	2,7799588447850614E-005	0,010007659144670437	2,54887891E-005	0,018795687199243312	-0,00070129236047397773	0,028549232196485821
1	1	0	0	0	0	2	415638,56	0,0100000007	2,55955005	2,7798423272764515E-005	0,010007239689366518	2,56140302E-005	0,020713785092054474	-0,00077285917176480717	0,030467330089296986
1	1	0	0	0	0	2	416328,57	0,0100000007	2,57104516	2,7799472128506749E-005	0,010007617270512931	2,57300362E-005	0,022631926542725126	-0,00084442760825793818	0,032385471539967616
1	1	0	0	0	0	2	417018,59	0,0100000007	2,5812037	2,7799353918474579E-005	0,010007574715254734	2,58315886E-005	0,024550085262776733	-0,00091599668909489165	0,0343036302600192
1	1	0	0	0	0	2	417708,60	0,0100000007	2,59023547	2,7799131599720566E-005	0,010007494682044323	2,59217686E-005	0,026468230895486778	-0,0009875652816255351	0,036221775892729286
1	1	0	0	0	0	2	418398,61	0,0100000007	2,59884739	2,7799436394953069E-005	0,010007604406681296	2,60082361E-005	0,028386385459465869	-0,0010591342073938352	0,038139930456708333
1	1	0	0	0	0	2	419088,63	0,0100000007	2,60646629	2,7798604083609664E-005	0,010007304780133952	2,60837023E-005	0,030304517868839846	-0,0011307023065440312	0,040058062866082285
1	1	0	0	0	0	2	419778,64	0,0100000007	2,61341667	2,7798924645202026E-005	0,010007420180318184	2,61535588E-005	0,032222635981898118	-0,0012022698722794666	0,04197618097914057
1	1	0	0	0	0	2	420468,65	0,0100000007	2,6199472	2,7797771352964141E-005	0,010007005002873757	2,62178255E-005	0,034140740328214061	-0,0012738369243592363	0,043894285325456512
1	1	0	0	0	0	2	421158,67	0,0100000007	2,62594295	2,7799093762981811E-005	0,010007481061546643	2,62790745E-005	0,036058863560140634	-0,0013454046810865302	0,045812408557383085
1	1	0	0	0	0	2	421848,68	0,0100000007	2,63123226	2,7797928410582243E-005	0,010007061542294613	2,6330903E-005	0,037976959039645069	-0,001416971402333641	0,04773050403688752
1	1	0	0	0	0	2	422538,69	0,0100000007	2,63642597	2,779863264075377E-005	0,010007315060274886	2,63835445E-005	0,03989507286222336	-0,0014885388079854995	0,049648617859465811
1	1	0	0	0	0	2	423228,71	0,0100000007	2,64118075	2,7799213420910141E-005	0,010007524137571418	2,64316805E-005	0,041813191599426368	-0,0015601063970086141	0,051566736596668819
1	1	0	0	0	0	2	423918,72	0,0100000007	2,64543891	2,7799301106120566E-005	0,010007555703289866	2,64743776E-005	0,043731311081962906	-0,0016316740138411248	0,053484856079205357
1	1	0	0	0	0	2	424608,73	0,0100000007	2,64975429	2,7798245613877146E-005	0,010007175733748022	2,65165563E-005	0,04564941681768103	-0,0017032411177613581	0,055402961814923482
1	1	0	0	0	0	2	425298,75	0,0100000007	2,65357327	2,7798826352434442E-005	0,010007384795370184	2,65553281E-005	0,04756750170739072	-0,0017748074438889885	0,057321046704633171
1	1	0	0	0	0	2	425988,76	0,0100000007	2,65718222	2,7799638524806749E-005	0,01000767717202753	2,65922226E-005	0,049485634116016051	-0,0018463755430112515	0,059239179113258509
1	1	0	0	0	0	2	426678,77	0,0100000007	2,66065764	2,7798374783868589E-005	0,010007222234049584	2,66257921E-005	0,051403749309097402	-0,0019179429997984221	0,061157294306339853
1	1	0	0	0	0	2	427368,79	0,0100000007	2,66380811	2,7798920608487808E-005	0,010007418726663048	2,66578427E-005	0,053321841908807622	-0,0019895096135965386	0,063075386906050074
1	1	0	0	0	0	2	428058,80	0,0100000007	2,66659594	2,7797714595631178E-005	0,010006984570860298	2,66845836E-005	0,055239928153442266	-0,002061075990278241	0,064993473150684749
1	1	0	0	0	0	2	428748,81	0,0100000007	2,66974664	2,7798713616354186E-005	0,010007344211512234	2,67170744E-005	0,057157978342432333	-0,0021326410216753667	0,066911523339674778
1	1	0	0	0	0	2	429438,83	0,0100000007	2,67247725	2,7798015703447162E-005	0,010007092967586883	2,67437281E-005	0,059076048431851277	-0,0022042067955842502	0,068829593429093747
1	1	0	0	0	0	2	430128,84	0,0100000007	2,67515063	2,7796884190860304E-005	0,010006685630665866	2,67693922E-005	0,060994091157369946	-0,002275771548509224	0,07074763615461239
1	1	0	0	0	0	2	430818,85	0,0100000007	2,67765188	2,7797584921432038E-005	0,010006937889047461	2,67950963E-005	0,062912111437923315	-0,0023473354639823638	0,07266565643516576
1	1	0	0	0	0	2	431508,87	0,0100000007	2,68045902	2,7797176929190752E-005	0,010006791014668653	2,68227941E-005	0,064830122560206285	-0,0024188990377481222	0,074583667557448717
1	1	0	0	0	0	2	432198,88	0,0100000007	2,68305588	2,7797146254529555E-005	0,010006779971537277	2,68487493E-005	0,066748139014529997	-0,0024904628104594896	0,076501684011772429
1	1	0	0	0	0	2	432888,89	0,0100000007	2,68548083	2,779727387914641E-005	0,010006825915980667	2,68731401E-005	0,068666143336928858	-0,0025620261305124291	0,07841968833417129
1	1	0	0	0	0	2	433578,91	0,0100000007	2,68781042	2,7797354771600416E-005	0,010006855036353914	2,68965287E-005	0,070584139601950259	-0,0026335891499337824	0,080337684599192691
1	1	0	0	0	0	2	434268,92	0,0100000007	2,69008279	2,779737035314449E-005	0,010006860645951254	2,69192842E-005	0,072502138287892173	-0,002705152259682935	0,082255683285134605
1	1	0	0	0	0	2	434958,93	0,0100000007	2,69193506	2,7796832376314947E-005	0,010006666977555712	2,69372977E-005	0,074420160316452877	-0,0027767162403765792	0,084173705313695309
1	1	0	0	0	0	2	435648,95	0,0100000007	2,69407368	2,7796841599150662E-005	0,010006670298178606	2,69587072E-005	0,076338157875290061	-0,0028482793080719392	0,086091702872532493
1	1	0	0	0	0	2	436338,96	0,0100000007	2,69625044	2,7796748408892502E-005	0,010006636750331627	2,69803986E-005	0,078256142104794662	-0,0029198418784319782	0,088009687102037094
1	1	0	0	0	0	2	437028,97	0,0100000007	2,69836998	2,779699648482104E-005	0,010006726055480363	2,700185E-005	0,080174124587043494	-0,0029914043835995565	0,089927669584285926
1	1	0	0	0	0	2	437718,99	0,0100000007	2,70050859	2,7796461116574291E-005	0,010006533327088477	2,70227301E-005	0,082092104065604339	-0,0030629667766954963	0,091845649062846771
1	1	0	0	0	0	2	438409,00	0,0100000007	2,70253277	2,7796956783522746E-005	0,010006711763171683	2,70434666E-005	0,084010078470783923	-0,003134528980496761	0,093763623468026355
1	1	0	0	0	0	2	439099,01	0,0100000007	2,70451856	2,7796182976414762E-005	0,010006433198559011	2,70625842E-005	0,08592803330543328	-0,0032060904540952294	0,095681578302675712
1	1	0	0	0	0	2	439789,03	0,0100000007	2,70648527	2,7796204667331446E-005	0,01000644100667271	2,70822857E-005	0,087845997649415616	-0,0032776522824996973	0,097599542646658048
1	1	0	0	0	0	2	440479,04	0,0100000007	2,70828032	2,779728620344152E-005	0,010006830352175509	2,71013014E-005	0,089763979983198694	-0,0033492147821278176	0,099517524980441126
1	1	0	0	0	0	2	440678,32	0,0100000007	2,70875764	2,5795209048212403E-005	0,010006553926826826	2,71053286E-005	0,09031790903631639	-0,0033698826198651718	0,10007145403355882