File: Experimentelles/Rohdaten/Batteriemessungen/AlteZelle/Studenten_Batterietests/LLTO_LP30_Li CV/ECLab-Export/LLTO_LP30_Li_05_GCPL_C01_loop7.mpt
EC-Lab ASCII FILE
Nb header lines : 3
mode	ox/red	error	control changes	Ns changes	counter inc.	Ns	time/s	control/V/mA	Ewe/V	dq/mA.h	<I>/mA	P/W	(Q-Qo)/mA.h	x	Capacity/mA.h
1	0	0	1	1	0	1	33330,82	-0,100000001	4,18837214	0	0	0	0	0	0
1	0	0	1	0	0	1	33390,82	-0,100000001	2,25518441	-0,00027773832625150678	-0,099985797264304384	0,000225486408	-0,0016650540242592086	6,2125404334056269E-005	0,0016650540242592086
1	0	0	1	0	0	1	33450,82	-0,100000001	1,4860152	-0,00027773838984304003	-0,099985820157256307	0,000148580453	-0,0033314842252043814	0,00012430215567055507	0,0033314842252043814
1	0	0	1	0	0	1	33510,82	-0,100000001	1,40514827	-0,00027773765040023459	-0,099985553957846848	0,000140494521	-0,0049979119782091443	0,00018647881567110592	0,0049979119782091443
1	0	0	1	0	0	1	33570,82	-0,100000001	1,35550153	-0,00027773791516820592	-0,099985649274316352	0,000135530703	-0,0066643393006908006	0,00024865545960826083	0,0066643393006908006
1	0	0	1	0	0	1	33630,82	-0,100000001	1,31775081	-0,00027773823524349264	-0,099985764501419341	0,000131756329	-0,0083307689687327821	0,00031083219106142502	0,0083307689687327821
1	0	0	1	0	0	1	33690,82	-0,100000001	1,30008805	-0,00027773811072732013	-0,099985719675597338	0,000129990236	-0,0099971989778201229	0,00037300893523945018	0,0099971989778201229
1	0	0	1	0	0	1	33750,82	-0,100000001	1,2652781	-0,000277738099001348	-0,099985715454247373	0,000126509738	-0,01166362595996712	0,00043518556647826138	0,01166362595996712
1	0	0	1	0	0	1	33810,82	-0,100000001	1,22533154	-0,00027773798287784061	-0,099985673649784781	0,000122515601	-0,013330054664323274	0,00049736226197501165	0,013330054664323274
1	0	0	1	0	0	1	33870,82	-0,100000001	1,18341815	-0,00027773800092935565	-0,099985680148330189	0,000118324868	-0,014996484152543837	0,00055953898671879699	0,014996484152543837
1	0	0	1	0	0	1	33930,82	-0,100000001	1,13724673	-0,00027773771118124326	-0,09998557583900992	0,000113708265	-0,016662913058982496	0,00062171568975551731	0,016662913058982496
1	0	0	1	0	0	1	33990,82	-0,100000001	1,08456385	-0,00027773788452438182	-0,099985638242539699	0,000108440807	-0,01832933816199911	0,00068389225088144742	0,01832933816199911
1	0	0	1	0	0	1	34050,82	-0,100000001	1,02514052	-0,00027773805673296253	-0,099985700237628634	0,000102499391	-0,019995765845234154	0,00074606890827879616	0,019995765845234154
1	0	0	1	0	0	1	34110,82	-0,100000001	0,975321889	-0,00027774007491932976	-0,099986426784719475	9,75189541E-005	-0,021662200589021005	0,00080824582911482598	0,021662200589021005
1	0	0	1	0	0	1	34170,82	-0,100000001	0,950135708	-0,00027774000213957498	-0,099986400584007821	9,50006506E-005	-0,023328640730933555	0,00087042295136218342	0,023328640730933555
1	0	0	1	0	0	1	34230,82	-0,100000001	0,936998367	-0,00027774006327241661	-0,099986422591830758	9,36871147E-005	-0,0249950798806436	0,00093260003658913139	0,0249950798806436
1	0	0	1	0	0	1	34290,82	-0,100000001	0,927030861	-0,00027773984900034138	-0,099986345453883814	9,26904249E-005	-0,026661517808270918	0,00099477707621852966	0,026661517808270918
1	0	0	1	0	0	1	34350,82	-0,100000001	0,915497541	-0,0002777398120690551	-0,099986332158620774	9,15372439E-005	-0,028327956662055482	0,0010569541504041	0,028327956662055482
1	0	0	1	0	0	1	34410,82	-0,100000001	0,902570307	-0,00027773972046416666	-0,099986299180861005	9,02446627E-005	-0,029994394795504672	0,001119131197712989	0,029994394795504672
1	0	0	1	0	0	1	34470,82	-0,100000001	0,888802826	-0,00027773983967180058	-0,099986342095609139	8,88681461E-005	-0,031660833879979085	0,0011813082805059077	0,031660833879979085
1	0	0	1	0	0	1	34530,82	-0,100000001	0,874443471	-0,00027774003138310381	-0,09998641111167817	8,74324614E-005	-0,033327273125977107	0,0012434853693254899	0,033327273125977107
1	0	0	1	0	0	1	34590,82	-0,100000001	0,859644949	-0,0002777399565676848	-0,099986384178127373	8,59527936E-005	-0,03499371185386839	0,0013056624388138125	0,03499371185386839
1	0	0	1	0	0	1	34650,82	-0,100000001	0,844483554	-0,00027773938297687302	-0,09998617768543552	8,44366805E-005	-0,036660150796220902	0,0013678395163039722	0,036660150796220902
1	0	0	1	0	0	1	34710,82	-0,100000001	0,828997612	-0,00027774019113845296	-0,099986468623603763	8,28885459E-005	-0,038326591821760301	0,0014300166715206352	0,038326591821760301
1	0	0	1	0	0	1	34770,82	-0,100000001	0,81328249	-0,00027774051643411322	-0,099986585730041229	8,13173392E-005	-0,039993032979309914	0,0014921938316627773	0,039993032979309914
1	1	0	0	1	0	2	34820,49	0,100000001	0,811722279	5,4884246653980678E-009	0,032930549622955008	2,67304604E-005	-0,041372672596357286	0,0015436700407200083	5,4884246653980678E-009
1	1	0	0	0	0	2	34880,49	0,100000001	0,856793404	0,00027780689369059274	0,10001048154232933	8,56883198E-005	-0,039705831889501402	0,0014814779728560493	0,0016668461952805517
1	1	0	0	0	0	2	34940,49	0,100000001	0,879802763	0,00027780731113006669	0,1000106318205397	8,79896324E-005	-0,038038989073460243	0,0014192858262955523	0,0033336890113217133
1	1	0	0	0	0	2	35000,49	0,100000001	0,901112676	0,00027780684498324995	0,10001046400768597	9,01206949E-005	-0,036372146430341254	0,0013570936861870144	0,0050005316544406944
1	1	0	0	0	0	2	35060,49	0,100000001	0,921009541	0,00027780663367071085	0,10001038793517205	9,21105238E-005	-0,034705307965815827	0,0012949017019874198	0,0066673701189661184
1	1	0	0	0	0	2	35120,49	0,100000001	0,939989865	0,00027780637508589357	0,100010294844638	9,40086611E-005	-0,033038469716143629	0,0012327097258042885	0,0083342083686383219
1	1	0	0	0	0	2	35180,49	0,100000001	0,958072782	0,00027780650187283757	0,10001034048793776	9,58171877E-005	-0,03137163056443088	0,001170517715964811	0,010001047520351077
1	1	0	0	0	0	2	35240,49	0,100000001	0,975029051	0,00027780707620125677	0,10001054724616827	9,75131916E-005	-0,029704788615067744	0,0011083256017412366	0,011667889469714211
1	1	0	0	0	0	2	35300,49	0,100000001	1,00542819	0,00027780671235298118	0,10001041626078931	0,00010055329	-0,028037947066763155	0,0010461335024816955	0,0133347310180188
1	1	0	0	0	0	2	35360,49	0,100000001	1,06683743	0,00027780695186100074	0,10001050248367619	0,000106694948	-0,026371105051249213	0,00098394138578994522	0,015001573033532742
1	1	0	0	0	0	2	35420,49	0,100000001	1,12089503	0,00027780715021491046	0,10001057389108355	0,000112101356	-0,02470426413040768	0,0009217493099418944	0,016668413954374275
1	1	0	0	0	0	2	35480,49	0,100000001	1,1667037	0,00027780651356900733	0,10001034469855885	0,000116682437	-0,02303742463508905	0,00085955728728201971	0,018335253449692906
1	1	0	0	0	0	2	35540,49	0,100000001	1,2095145	0,00027780653956615264	0,10001035405753114	0,000120963974	-0,021370585014353965	0,00079736525994268851	0,02000209307042799
1	1	0	0	0	0	2	35600,49	0,100000001	1,25287902	0,00027780574726892842	0,10001006883053098	0,000125300518	-0,019703748749991197	0,00073517335783412122	0,021668929334790758
1	1	0	0	0	0	2	35660,49	0,100000001	1,2973702	0,00027780593426980909	0,10001013615084787	0,000129750173	-0,018036913445766128	0,00067298149154958234	0,023335764639015827
1	1	0	0	0	0	2	35720,49	0,100000001	1,34308338	0,00027780575189284157	0,10001007049513968	0,000134321861	-0,016370078111454371	0,00061078962414246861	0,025002599973327584
1	1	0	0	0	0	2	35780,49	0,100000001	1,37239408	0,00027780643591533107	0,10001031674323544	0,000137253563	-0,014703241432307024	0,00054859770655773088	0,026669436652474934
1	1	0	0	0	0	2	35840,49	0,100000001	1,37531567	0,00027780606074134512	0,10001018168060075	0,000137545576	-0,013036403719631275	0,00048640575041065901	0,028336274365150682
1	1	0	0	0	0	2	35900,49	0,100000001	1,4085598	0,00027780655574219094	0,10001035988090493	0,000140870572	-0,011369564659729128	0,00042421374399675872	0,030003113425052832
1	1	0	0	0	0	2	35960,49	0,100000001	1,4744755	0,00027780666845581594	0,10001040045780986	0,000147462881	-0,009702725776540265	0,00036202174417626874	0,031669952308241696
1	1	0	0	0	0	2	36020,49	0,100000001	2,28878427	0,00027780699778555168	0,1000105190165145	0,0002289025	-0,0080358853294352115	0,00029982968600396294	0,033336792755346758
1	1	0	0	0	0	2	36080,49	0,100000001	3,05995107	0,00027780727155754963	0,10001061757443357	0,000306027592	-0,006369043203740841	0,00023763756520123283	0,035003634881041133
1	1	0	0	0	0	2	36140,49	0,100000001	3,46228075	0,00027780649298512275	0,10001033728836042	0,000346263871	-0,0047022038037109965	0,00017544554609671088	0,036670474281070982
1	1	0	0	0	0	2	36200,49	0,100000001	3,70469069	0,0002778069046905471	0,10001048550231291	0,000370507914	-0,0030353631517642323	0,00011325348028148547	0,038337314933017741
1	1	0	0	0	0	2	36260,49	0,100000001	3,9147346	0,00027780747429943747	0,10001069056151307	0,000391515321	-0,0013685193681140987	5,1061297618196691E-005	0,040004158716667878
1	1	0	0	0	0	2	36320,49	0,100000001	4,08660793	0,00027780684120456381	0,10001046264735896	0,000408703549	0,00029832364127169914	-1,1130856156248686E-005	0,041671001726053677
1	1	0	0	0	0	2	36367,23	0,100000001	4,19998169	0,00018707534220814704	0,10001057776837494	0,000420042605	0,0015966273978224816	-5,9572314901124262E-005	0,042969305482604454