File: Experimentelles/Rohdaten/Batteriemessungen/AlteZelle/Studenten_Batterietests/LLTO_LP30_Li CV/ECLab-Export/LLTO_LP30_Li_02_CV_C01_loop3.mpt
EC-Lab ASCII FILE
Nb header lines : 3
mode	ox/red	error	control changes	counter inc.	time/s	control/V	Ewe/V	<I>/mA	cycle number	(Q-Qo)/C	P/W
2	0	0	1	0	2760,39	2,11003256	2,11085224	-0,047632526606321338	4	0	0,000100545229
2	0	0	0	0	2766,47	2,04922748	2,0496316	-0,045350432667570854	4	-0,000269524287	9,29516827E-005
2	0	0	0	0	2772,57	1,98822272	1,98872268	-0,047819354299766138	4	-0,000555154635	9,50994363E-005
2	0	0	0	0	2778,68	1,9272182	1,92792416	-0,050617721319819565	4	-0,000856995699	9,75871299E-005
2	0	0	1	0	2784,78	1,86621332	1,86670423	-0,053554792539216576	4	-0,00117652211	9,99709591E-005
2	0	0	1	0	2790,88	1,8052088	1,805354	-0,057630848100719264	4	-0,00151724985	0,000104044084
2	0	0	1	0	2796,98	1,74420416	1,74467564	-0,0629996301528688	4	-0,00188591192	0,000109913919
2	0	0	0	0	2803,08	1,68319952	1,68368626	-0,070567442996737894	4	-0,00229432341	0,000118813434
2	0	0	0	0	2809,18	1,62219477	1,62266695	-0,079574091476388275	4	-0,00275356811	0,000129122243
2	0	0	0	0	2815,28	1,56119013	1,56196845	-0,09633906843373568	4	-0,00328466366	0,000150478591
2	0	0	1	0	2821,42	1,49978542	1,50028753	-0,14643461032149706	4	-0,00400200253	0,000219694019
2	0	0	1	0	2827,52	1,43878078	1,43948877	-0,26543369058830102	4	-0,00522448681	0,000382088823
2	0	0	1	0	2833,62	1,37777627	1,3782891	-0,43337804917246278	4	-0,00734555582	0,000597320264
2	0	0	0	0	2839,72	1,31677151	1,3169589	-0,60869087853158451	4	-0,0105303265	0,000801620889
2	0	0	0	0	2845,82	1,25576687	1,25638068	-0,77186131818840576	4	-0,014748631	0,000969751622
2	0	0	0	0	2851,92	1,19476223	1,19536126	-0,95099716540425843	4	-0,0200059712	0,00113678514
2	0	0	1	0	2858,06	1,13335752	1,13378072	-1,0890559252972416	4	-0,0263028927	0,00123475061
2	0	0	1	0	2864,16	1,07235301	1,07284164	-1,1671187911803555	4	-0,0332151055	0,00125213363
2	0	0	1	0	2870,26	1,01134825	1,0116117	-1,1946016891549043	4	-0,0404479578	0,001208473
2	0	0	0	0	2876,36	0,950343609	0,9506827	-1,1651067783435174	4	-0,047679659	0,00110764685
2	1	0	1	0	2882,42	0,910340488	0,910835207	-0,89997293831159731	4	-0,0544190668	0,000819727022
2	1	0	1	0	2888,55	0,971645176	0,971954763	-0,20559669891372323	4	-0,0575080328	0,000199830698
2	1	0	1	0	2894,73	1,03345013	1,03396678	0,12649005167402461	4	-0,057638105	0,000130786517
2	1	0	0	0	2900,84	1,09445453	1,09499586	0,31715703631440742	4	-0,0562452078	0,000347285648
2	1	0	0	0	2906,94	1,15545917	1,15576446	0,46269790129735802	4	-0,0538527481	0,000534769788
2	1	0	0	0	2913,04	1,21646249	1,2169224	0,59521586044070003	4	-0,0506193787	0,000724331534
2	1	0	1	0	2919,14	1,27746844	1,27792346	0,71650721179321587	4	-0,0466073081	0,000915641373
2	1	0	1	0	2925,24	1,3384732	1,33884251	0,81768755707889446	4	-0,0419137627	0,0010947549
2	1	0	1	0	2931,34	1,39947784	1,39997208	0,89523145654980851	4	-0,0366753489	0,00125329907
2	1	0	0	0	2937,44	1,4604826	1,46083105	0,9916842117284759	4	-0,0309719797	0,00144868309
2	1	0	0	0	2943,57	1,52178717	1,52235162	1,1282970666264501	4	-0,0244188458	0,00171766488
2	1	0	0	0	2949,67	1,58279109	1,58324921	1,0600830005092021	4	-0,0175774619	0,00167837553
2	1	0	1	0	2955,77	1,64379644	1,64442015	0,63459144268805901	4	-0,0122537343	0,00104353495
2	1	0	1	0	2961,91	1,70520115	1,70549953	0,093526363489218291	4	-0,0102567682	0,000159509174
2	1	0	1	0	2968,01	1,76620543	1,76672947	0,052437828377145389	4	-0,00985591114	9,26434586E-005
2	1	0	0	0	2974,15	1,82761037	1,82805955	0,043402395996963603	4	-0,00956435036	7,93421641E-005
2	1	0	0	0	2980,25	1,88861501	1,88900864	0,039363335575520544	4	-0,00931186508	7,4357682E-005
2	1	0	1	0	2986,35	1,94962096	1,95031977	0,037539004582698598	4	-0,00907635689	7,32130648E-005
2	1	0	1	0	2992,45	2,01062441	2,01122785	0,036909006933759283	4	-0,00884769391	7,42324191E-005
2	1	0	1	0	2998,55	2,07162905	2,07209659	0,036695816486220224	4	-0,00862120837	7,60372786E-005
2	1	0	0	0	3004,65	2,13263369	2,13317609	0,03699888778074345	4	-0,00839510374	7,89251426E-005
2	1	0	0	0	3010,75	2,19363832	2,19408512	0,037353779150483322	4	-0,00816701259	8,19573688E-005
2	1	0	0	0	3016,85	2,25464296	2,25527477	0,038113292122337216	4	-0,00793524086	8,59559441E-005
2	1	0	1	0	3022,95	2,3156476	2,31580305	0,039067634216432115	4	-0,00769791985	9,04729459E-005
2	1	0	1	0	3029,06	2,37665224	2,37701273	0,040515817779426822	4	-0,00745300064	9,63066122E-005
2	1	0	1	0	3035,16	2,43765712	2,43813205	0,042164538608631066	4	-0,00719951233	0,000102802711
2	1	0	0	0	3041,26	2,49866223	2,49929309	0,044324808101107642	4	-0,00693361228	0,000110780689
2	1	0	0	0	3047,36	2,55966616	2,56001043	0,046352160037107123	4	-0,00665508956	0,000118662014
2	1	0	0	0	3053,46	2,6206708	2,62092972	0,048958596424199642	4	-0,00636300538	0,000128317042
2	1	0	1	0	3059,56	2,68167567	2,68216944	0,051581379678876435	4	-0,00605564564	0,000138350006
2	1	0	1	0	3065,66	2,74268031	2,74330926	0,054363978192365267	4	-0,00573135912	0,00014913721
2	1	0	1	0	3071,76	2,80368495	2,80410767	0,057194999108712173	4	-0,00538948877	0,000160380936
2	1	0	0	0	3077,86	2,86468959	2,86518741	0,060319543408695501	4	-0,00502943201	0,000172826796
2	1	0	0	0	3083,96	2,92569447	2,92631721	0,063482907814128576	4	-0,00465026824	0,000185771132
2	1	0	0	0	3090,06	2,9866991	2,98706555	0,066797712449139341	4	-0,00425137114	0,000199529153
2	1	0	1	0	3096,16	3,04770374	3,04835558	0,070697201183065549	4	-0,00383040193	0,000215510212
2	1	0	1	0	3102,26	3,10870814	3,10899377	0,075008347300657498	4	-0,00338397501	0,000233200481
2	1	0	1	0	3108,36	3,16971278	3,1704042	0,080048556264955776	4	-0,00290969945	0,000253786275
2	1	0	0	0	3114,46	3,23071814	3,23121357	0,08595174487490281	4	-0,00240283273	0,000277728454
2	1	0	0	0	3120,56	3,2917223	3,29200125	0,093731043394654771	4	-0,00185441459	0,00030856271
2	1	0	0	0	3126,70	3,353127	3,35358214	0,10424252983648307	4	-0,00124570285	0,000349585898
2	1	0	1	0	3132,80	3,41413164	3,41469193	0,11834019255669138	4	-0,000566173112	0,000404095306
2	1	0	1	0	3138,90	3,47513628	3,47566104	0,13497455515122646	4	0,000206836383	0,000469125807
2	1	0	1	0	3145,00	3,53614092	3,5365901	0,15453419407519232	4	0,00108918827	0,000546524127
2	1	0	0	0	3151,10	3,59714532	3,59750938	0,17842562104730541	4	0,0021044435	0,000641887833
2	1	0	0	0	3157,20	3,65814996	3,65847826	0,20231544575653971	4	0,00327054993	0,000740166637
2	1	0	0	0	3163,31	3,71915507	3,71966839	0,21849475932928451	4	0,00455873413	0,000812728074
2	1	0	1	0	3169,41	3,78015971	3,78037643	0,23170590066971862	4	0,00593380304	0,000875935541
2	1	0	1	0	3175,51	3,84116411	3,84189725	0,24630501020389328	4	0,00739274221	0,000946278567
2	1	0	1	0	3181,61	3,90216875	3,90300655	0,26404110047345331	4	0,00895052124	0,00103055418
2	1	0	0	0	3187,71	3,96317339	3,96353483	0,28431210969574659	4	0,0106237996	0,00112688099
2	1	0	0	0	3193,81	4,0241785	4,02463436	0,30449563583048646	4	0,0124220559	0,0012254836
2	1	0	0	0	3199,91	4,08518314	4,08578396	0,32165443967096442	4	0,0143368691	0,00131421059
2	1	0	1	0	3206,01	4,14618731	4,14690351	0,33078285229081939	4	0,0163313802	0,00137172453
2	0	0	1	1	3212,07	4,19319105	4,19376802	0,27945713295290896	4	0,0183486361	0,00117197842
2	0	0	0	1	3218,17	4,13218641	4,13274908	0,1156453081639479	4	0,0194334835	0,000477933034
2	0	0	0	1	3224,27	4,07118177	4,07178974	0,061353890128278298	4	0,0199493431	0,00024982015
2	0	0	0	1	3230,41	4,00977802	4,01041985	0,033471991494770317	4	0,0202307496	0,000134236732
2	0	0	1	1	3236,51	3,94877219	3,94919991	0,016573324595810832	4	0,0203774627	6,54513715E-005
2	0	0	1	1	3242,61	3,88776755	3,88835073	0,0055927015358368909	4	0,0204407666	2,17463858E-005
2	0	0	1	1	3248,75	3,82636309	3,82681894	-0,002112277405486064	4	0,020449033	8,08330333E-006
2	0	0	0	1	3254,85	3,76535821	3,76583099	-0,0071333510131807718	4	0,0204200055	2,68629938E-005
2	0	0	0	1	3260,99	3,7039535	3,70444083	-0,010751183309669954	4	0,02036383	3,98271222E-005
2	0	0	0	1	3267,09	3,6429491	3,6433723	-0,014266926479850616	4	0,0202856027	5,1979725E-005
2	0	0	1	1	3273,19	3,58194447	3,58242226	-0,017080549844346704	4	0,0201875828	6,11897412E-005
2	0	0	1	1	3279,29	3,52093983	3,52150297	-0,019523907544983862	4	0,0200736467	6,87534994E-005
2	0	0	1	1	3285,40	3,4599359	3,46046519	-0,021233669978961254	4	0,0199478343	7,34783753E-005
2	0	0	0	1	3291,50	3,39893007	3,39935446	-0,022630146466932845	4	0,0198123809	7,69278922E-005
2	0	0	0	1	3297,60	3,33792567	3,33836508	-0,023896548183984234	4	0,0196681991	7,97754037E-005
2	0	0	1	1	3303,70	3,27691984	3,27728534	-0,025362681320917014	4	0,0195155982	8,31207435E-005
2	0	0	1	1	3309,80	3,2159164	3,21624637	-0,026565913237088026	4	0,0193550531	8,54425234E-005
2	0	0	1	1	3315,90	3,15491176	3,15522695	-0,027820807862250717	4	0,0191873219	8,77809653E-005
2	0	0	1	1	3322,00	3,09390736	3,09441805	-0,028687250853256186	4	0,0190134458	8,877035E-005
2	0	0	0	1	3328,10	3,03290248	3,03333879	-0,029439465210695514	4	0,0188347194	8,92998723E-005
2	0	0	0	1	3334,20	2,9718976	2,97228932	-0,029904638242442163	4	0,0186525099	8,88852373E-005
2	0	0	1	1	3340,30	2,91089368	2,91141176	-0,030201924295467366	4	0,0184677336	8,79302388E-005
2	0	0	1	1	3346,40	2,84988832	2,8504312	-0,030327578463281267	4	0,0182813779	8,64466783E-005
2	0	0	1	1	3352,50	2,78888369	2,78921151	-0,03047396096129287	4	0,0180940349	8,49983262E-005
2	0	0	0	1	3358,60	2,72787833	2,72844172	-0,030501817167514214	4	0,0179063361	8,32224323E-005
2	0	0	0	1	3364,70	2,66687441	2,66747355	-0,030701522278832269	4	0,0177182369	8,18955014E-005
2	0	0	0	1	3370,80	2,60586977	2,60641408	-0,031040095103283731	4	0,017528858	8,09033445E-005
2	0	0	0	1	3376,90	2,54486561	2,54538536	-0,031523802226028019	4	0,01733643	8,02402283E-005
2	0	0	1	1	3383,00	2,48386049	2,48423529	-0,032754601454750285	4	0,0171386339	8,13701336E-005
2	0	0	1	1	3389,10	2,42285585	2,42342639	-0,03405735777535801	4	0,0169333313	8,25355019E-005
2	0	0	0	1	3395,20	2,36185098	2,36231494	-0,035575096527179936	4	0,0167191159	8,40395805E-005
2	0	0	0	1	3401,30	2,30084658	2,30142784	-0,037113353299597862	4	0,0164950415	8,54137033E-005
2	0	0	0	1	3407,40	2,23984194	2,24014783	-0,03906151554353232	4	0,0162604284	8,75035694E-005
2	0	0	1	1	3413,51	2,17883682	2,17919731	-0,041046463810987091	4	0,0160146728	8,94483455E-005
2	0	0	1	1	3419,61	2,11783242	2,11818933	-0,043111949741917869	4	0,0157570262	9,13192707E-005
2	0	0	1	1	3420,35	2,11033273	2,11069179	-0,04391399646798777	4	0,0157248434	9,26889115E-005