File: Experimentelles/Rohdaten/Batteriemessungen/AlteZelle/Studenten_Batterietests/LLTO_LP30_Li CV/ECLab-Export/LLTO_LP30_Li_02_CV_C01_loop4.mpt
EC-Lab ASCII FILE
Nb header lines : 3
mode	ox/red	error	control changes	counter inc.	time/s	control/V	Ewe/V	<I>/mA	cycle number	(Q-Qo)/C	P/W
2	0	0	1	0	3420,49	2,11043262	2,11109281	-0,049960222095251085	5	0	0,000105470666
2	0	0	0	0	3426,57	2,04962754	2,05020308	-0,045245081545241984	5	-0,000270306773	9,27616056E-005
2	0	0	0	0	3432,67	1,98862267	1,98892331	-0,047732102539157498	5	-0,000555692939	9,49354944E-005
2	0	0	0	0	3438,77	1,92761803	1,92797399	-0,050457475066650656	5	-0,000856887316	9,72807029E-005
2	0	0	1	0	3444,87	1,86661351	1,86697483	-0,053331852948758861	5	-0,00117528078	9,95692244E-005
2	0	0	1	0	3450,97	1,80560887	1,80601561	-0,05737186504605529	5	-0,00151431304	0,000103614482
2	0	0	1	0	3457,07	1,74460423	1,74500644	-0,062689403498855654	5	-0,00188086322	0,000109393412
2	0	0	0	0	3463,17	1,68359947	1,68411732	-0,070249641333551603	5	-0,00228697271	0,000118308635
2	0	0	0	0	3469,27	1,62259483	1,62304783	-0,079096601984929178	5	-0,00274353544	0,000128377564
2	0	0	0	0	3475,37	1,56159019	1,56210876	-0,0958266161809056	5	-0,00327191199	0,000149691594
2	0	0	1	0	3481,51	1,50018549	1,50043786	-0,14677998264475402	5	-0,00398867996	0,000220234244
2	0	0	1	0	3487,61	1,43918097	1,43992984	-0,26688570234303686	5	-0,00521643227	0,000384296698
2	0	0	1	0	3493,71	1,37817621	1,37864983	-0,43532248198365229	5	-0,00734799169	0,000600157247
2	0	0	0	0	3499,81	1,31717157	1,31754029	-0,61053855887925043	5	-0,010544192	0,000804409152
2	0	0	0	0	3505,91	1,25616693	1,25670147	-0,77367127748827341	5	-0,0147723639	0,000972273818
2	0	0	0	0	3512,01	1,19516242	1,19554186	-0,95244654795775923	5	-0,0200407561	0,00113868969
2	0	0	1	0	3518,15	1,13375771	1,13415158	-1,0895457441608141	5	-0,0263438188	0,00123570999
2	0	0	1	0	3524,26	1,07275295	1,07312226	-1,1663278456156477	5	-0,0332539864	0,00125161232
2	0	0	1	0	3530,36	1,01174831	1,01210296	-1,1931400519485286	5	-0,0404785685	0,00120758056
2	0	0	0	0	3536,46	0,950743675	0,951314211	-1,1632232998187355	5	-0,0476992615	0,00110659085
2	1	0	1	0	3542,51	0,909840465	0,910283804	-0,90806166113664589	5	-0,0544294119	0,000826593838
2	1	0	1	0	3548,65	0,97124517	0,971623957	-0,20862095647802058	5	-0,057553459	0,000202701121
2	1	0	1	0	3554,83	1,03304982	1,03346527	0,12429799938884856	5	-0,0576988049	0,000128457672
2	1	0	0	0	3560,93	1,09405458	1,094715	0,31559198023751558	5	-0,0563163236	0,000345483277
2	1	0	0	0	3567,03	1,15505922	1,15522313	0,46111830417066637	5	-0,053933356	0,00053269451
2	1	0	0	0	3573,13	1,21606374	1,21630251	0,59324937531103744	5	-0,0507113449	0,000721570686
2	1	0	1	0	3579,23	1,2770685	1,27735198	0,71441399414712986	5	-0,0467119999	0,000912558113
2	1	0	1	0	3585,33	1,33807313	1,33846152	0,81600306058923699	5	-0,0420297123	0,00109218864
2	1	0	1	0	3591,43	1,39907789	1,3995409	0,89403817523270848	5	-0,0368003696	0,00125124294
2	1	0	0	0	3597,53	1,46008253	1,46042001	0,98881616474439757	5	-0,0311074965	0,0014440869
2	1	0	0	0	3603,66	1,52138722	1,52188039	1,1279138090709875	5	-0,0245649982	0,00171654986
2	1	0	0	0	3609,76	1,58239174	1,58292985	1,0659198534364496	5	-0,0177100543	0,00168727641
2	1	0	1	0	3615,86	1,64339626	1,64368832	0,64640278384710298	5	-0,0123301074	0,00106248469
2	1	0	1	0	3622,00	1,70480096	1,70534933	0,097489825081235277	5	-0,0102579696	0,000166254205
2	1	0	1	0	3628,10	1,76580584	1,76643872	0,053260340432946861	5	-0,00984674413	9,40811296E-005
2	1	0	0	0	3634,24	1,82721031	1,82754838	0,044235065899556448	5	-0,00954981428	8,08417244E-005
2	1	0	0	0	3640,34	1,88821507	1,88863778	0,040077122976072019	5	-0,00929307565	7,56911686E-005
2	1	0	0	0	3646,45	1,94922042	1,94960761	0,03814399169473792	5	-0,00905388966	7,43658165E-005
2	1	0	1	0	3652,55	2,01022434	2,01051593	0,037412415064560832	5	-0,00882214494	7,52182532E-005
2	1	0	1	0	3658,65	2,07122898	2,07180595	0,037196448936204774	5	-0,00859294273	7,70638217E-005
2	1	0	1	0	3664,75	2,1322341	2,13266492	0,037275671782074829	5	-0,00836428627	7,94965163E-005
2	1	0	0	0	3670,85	2,19323826	2,19346356	0,037733823681871334	5	-0,00813380256	8,2767765E-005
2	1	0	0	0	3676,95	2,2542429	2,25466323	0,038527514358671885	5	-0,0078997435	8,68665666E-005
2	1	0	0	0	3683,05	2,31524682	2,31556225	0,039415106201271149	5	-0,00766024366	9,12681353E-005
2	1	0	1	0	3689,15	2,37625241	2,37676239	0,040861677145585459	5	-0,00741340546	9,71185E-005
2	1	0	1	0	3695,25	2,43725681	2,43775153	0,04245923794223913	5	-0,00715824915	0,000103505074
2	1	0	0	0	3701,35	2,49826288	2,49869132	0,044564415891091949	5	-0,00689112116	0,000111352718
2	1	0	0	0	3707,45	2,55926633	2,55954933	0,046395638327036525	5	-0,00661182357	0,000118751923
2	1	0	0	0	3713,55	2,62027097	2,62071896	0,048759300746799738	5	-0,00631948793	0,000127784428
2	1	0	0	0	3719,65	2,68127561	2,68199849	0,051353040177628096	5	-0,00601252029	0,00013772877
2	1	0	1	0	3725,75	2,74228024	2,74295831	0,054188975734481005	5	-0,00568927918	0,000148638108
2	1	0	1	0	3731,85	2,80328512	2,80372691	0,056879432910742931	5	-0,0053491774	0,000159474395
2	1	0	1	0	3737,95	2,86428857	2,86474466	0,059881605683856192	5	-0,00499172742	0,000171545515
2	1	0	0	0	3744,05	2,9252944	2,92579579	0,062874027663686656	5	-0,00461619394	0,000183956567
2	1	0	0	0	3750,15	2,98629904	2,98674464	0,065932631764250483	5	-0,00422219047	0,000196923938
2	1	0	1	0	3756,25	3,04730463	3,04787445	0,069403873261445146	5	-0,00380773703	0,000211534294
2	1	0	1	0	3762,35	3,10830808	3,10885358	0,073501169254692685	5	-0,00336993462	0,000228504374
2	1	0	1	0	3768,45	3,16931295	3,16981244	0,077866070166540454	5	-0,00290686032	0,000246820826
2	1	0	1	0	3774,55	3,23031735	3,23071146	0,083247167368418304	5	-0,00241467683	0,000268947566
2	1	0	0	0	3780,66	3,29132223	3,29172111	0,090052055971076019	5	-0,00188570446	0,000296426268
2	1	0	0	0	3786,80	3,35272694	3,35302091	0,09912313113454729	5	-0,00130384672	0,000332361931
2	1	0	1	0	3792,90	3,41373181	3,41410923	0,11120575576124142	5	-0,000661112193	0,000379668607
2	1	0	1	0	3799,00	3,47473621	3,47512984	0,12534688642093261	5	6,17245751E-005	0,00043559671
2	1	0	1	0	3805,10	3,53574061	3,53608894	0,14210634383683374	5	0,000877886196	0,000502500683
2	1	0	0	0	3811,20	3,59674597	3,59709692	0,16240543049565776	5	0,00180693797	0,000584188092
2	1	0	0	0	3817,30	3,65775037	3,65836787	0,1825277956668287	5	0,00286318013	0,000667753804
2	1	0	0	0	3823,40	3,71875501	3,71913719	0,19689452120413354	5	0,00402371818	0,000732277753
2	1	0	1	0	3829,50	3,77975941	3,78013611	0,20947541257676947	5	0,0052645565	0,000791845552
2	1	0	1	0	3835,60	3,84076405	3,84134603	0,22361469788787146	5	0,00658599287	0,000858981453
2	1	0	1	0	3841,70	3,90176868	3,90244555	0,24090291963269238	5	0,00800352916	0,000940110534
2	1	0	0	0	3847,80	3,96277332	3,96314406	0,26040285050786947	5	0,00953365769	0,00103201403
2	1	0	0	0	3853,90	4,02377844	4,02424335	0,27965138456784189	5	0,0111839836	0,00112538517
2	1	0	0	0	3860,00	4,0847826	4,08546352	0,29557025339454432	5	0,0129436478	0,00120754144
2	1	0	1	0	3866,10	4,14578724	4,14656258	0,30396691601102611	5	0,0147760175	0,00126041786
2	0	0	1	1	3872,15	4,19369078	4,19428921	0,25674965597378698	5	0,0166311599	0,00107688236
2	0	0	0	1	3878,25	4,13268614	4,13349056	0,10109277061807603	5	0,0176031068	0,000417866017
2	0	0	0	1	3884,35	4,0716815	4,07210064	0,051629081290836038	5	0,0180468522	0,00021023881
2	0	0	0	1	3890,49	4,01027775	4,01075268	0,026479556350184176	5	0,0182779841	0,000106202955
2	0	0	1	1	3896,59	3,94927263	3,94975114	0,011285912922176038	5	0,0183877405	4,45765472E-005
2	0	0	1	1	3902,74	3,88786793	3,88841105	0,0011681092637445509	5	0,0184224173	4,54208885E-006
2	0	0	0	1	3908,84	3,82686305	3,82741165	-0,0056112497477421965	5	0,0184072908	2,14765623E-005
2	0	0	0	1	3914,98	3,76545858	3,76586127	-0,0098624087113421965	5	0,0183585286	3,7140464E-005
2	0	0	0	1	3921,08	3,70445395	3,70511222	-0,013276210544669765	5	0,0182862021	4,918985E-005
2	0	0	1	1	3927,18	3,64344811	3,64410114	-0,016185408067130259	5	0,0181942135	5,89812626E-005
2	0	0	1	1	3933,28	3,58244419	3,58303356	-0,01883137993960793	5	0,0180850942	6,74734692E-005
2	0	0	1	1	3939,38	3,52143979	3,52205443	-0,020759360350590838	5	0,0179624259	7,3115596E-005
2	0	0	1	1	3945,48	3,46043539	3,46083522	-0,022356015172278976	5	0,017829461	7,73704814E-005
2	0	0	0	1	3951,58	3,39943051	3,39987564	-0,023567129392176976	5	0,0176880416	8,01253118E-005
2	0	0	0	1	3957,68	3,33842587	3,33900666	-0,024652949621668029	5	0,0175388865	8,23163646E-005
2	0	0	1	1	3963,78	3,27742219	3,27780819	-0,026047711510675421	5	0,0173821729	8,53794045E-005
2	0	0	1	1	3969,88	3,21641636	3,21689796	-0,027071086447297971	5	0,0172182545	8,70849253E-005
2	0	0	1	1	3975,98	3,15541172	3,15580845	-0,028090187115594746	5	0,0170478448	8,8647248E-005
2	0	0	0	1	3982,08	3,0944066	3,09476662	-0,028820790129681293	5	0,0168718901	8,91936215E-005
2	0	0	0	1	3988,18	3,03340268	3,03397036	-0,029596409508182432	5	0,0166915897	8,97946302E-005
2	0	0	0	1	3994,28	2,9723978	2,97265053	-0,030101011157967264	5	0,016508244	8,94797849E-005
2	0	0	0	1	4000,38	2,91139388	2,91204309	-0,030336107470432749	5	0,0163227674	8,83400498E-005
2	0	0	1	1	4006,48	2,85038853	2,85094261	-0,030422927229665222	5	0,0161360614	8,67340204E-005
2	0	0	1	1	4012,58	2,78938389	2,78957224	-0,030539046517030099	5	0,0159486625	8,51908771E-005
2	0	0	0	1	4018,68	2,72837925	2,72881389	-0,030489904162241178	5	0,0157610271	8,32012738E-005
2	0	0	0	1	4024,78	2,66737437	2,66788459	-0,030619153209651475	5	0,0155730452	8,16883694E-005
2	0	0	0	1	4030,88	2,60636973	2,60691547	-0,030862084201847603	5	0,0153836859	8,04548472E-005
2	0	0	1	1	4036,99	2,54536486	2,54585528	-0,031633011800872051	5	0,0151910996	8,0533071E-005
2	0	0	1	1	4043,09	2,48436069	2,4847765	-0,03287623144569801	5	0,0149930334	8,16900865E-005
2	0	0	1	1	4049,19	2,42335606	2,42381716	-0,034191363772455021	5	0,0147873731	8,28736156E-005
2	0	0	1	1	4055,29	2,36235166	2,36273813	-0,035696165029388992	5	0,0145727638	8,43406888E-005
2	0	0	0	1	4061,39	2,30134654	2,30178881	-0,037224892856708461	5	0,0143483104	8,56838451E-005
2	0	0	0	1	4067,49	2,2403419	2,24083948	-0,039117399021051712	5	0,0141133629	8,76558115E-005
2	0	0	1	1	4073,59	2,17933726	2,17990041	-0,040970969367384371	5	0,0138673168	8,93126344E-005
2	0	0	1	1	4079,69	2,11833262	2,11868048	-0,042950072626505741	5	0,0136094512	9,09974769E-005
2	0	0	1	1	4080,45	2,11073279	2,11125302	-0,043320577777922157	5	0,0135764685	9,14607008E-005