File: Experimentelles/Rohdaten/Batteriemessungen/AlteZelle/Studenten_Batterietests/LLTO_LP30_Li CV/ECLab-Export/LLTO_LP30_Li_05_GCPL_C01_loop0.mpt
EC-Lab ASCII FILE
Nb header lines : 3
mode	ox/red	error	control changes	Ns changes	counter inc.	Ns	time/s	control/V/mA	Ewe/V	dq/mA.h	<I>/mA	P/W	(Q-Qo)/mA.h	x	Capacity/mA.h
1	0	0	1	1	0	1	11641,06	-0,100000001	2,25884342	0	0	0	0	0	0
1	0	0	1	0	0	1	11701,06	-0,100000001	1,43967187	-0,00027773408686162698	-0,099984272480714637	0,000143944548	-0,0016650320814545379	6,212458561851159E-005	0,0016650320814545379
1	0	0	1	0	0	1	11761,06	-0,100000001	1,37694502	-0,00027773381343939242	-0,099984174048709005	0,000137672716	-0,0033314344550441133	0,00012430029867895877	0,0033314344550441133
1	0	0	1	0	0	1	11821,06	-0,100000001	1,3294369	-0,00027773311985118525	-0,099983924356951398	0,000132922316	-0,0049978335466984672	0,00018647588928599024	0,0049978335466984672
1	0	0	1	0	0	1	11881,06	-0,100000001	1,30579746	-0,00027773337560519578	-0,099984016428396314	0,000130558881	-0,0066642332874763776	0,00024865150411269437	0,0066642332874763776
1	0	0	1	0	0	1	11941,06	-0,100000001	1,28000021	-0,00027773372329688733	-0,099984141597406784	0,000127979729	-0,0083306345368461914	0,00031082717522699072	0,0083306345368461914
1	0	0	1	0	0	1	12001,06	-0,100000001	1,24158132	-0,0002777337031691439	-0,099984134351419059	0,000124138431	-0,0099970365133293402	0,00037300287347086323	0,0099970365133293402
1	0	0	1	0	0	1	12061,06	-0,100000001	1,20087099	-0,0002777336623536216	-0,099984119657830874	0,000120068027	-0,011663437951365238	0,0004351785516245449	0,011663437951365238
1	0	0	1	0	0	1	12121,06	-0,100000001	1,15762103	-0,00027773413990686339	-0,099984291576999987	0,000115743918	-0,01332984176428157	0,00049735431838820858	0,01332984176428157
1	0	0	1	0	0	1	12181,06	-0,100000001	1,10959733	-0,00027773333826081622	-0,099984002984419507	0,000110941983	-0,014996244476976454	0,00055953004410113075	0,014996244476976454
1	0	0	1	0	0	1	12241,06	-0,100000001	1,05510044	-0,0002777337127485209	-0,099984137799994829	0,000105493309	-0,016662644833485245	0,00062170568190158182	0,016662644833485245
1	0	0	1	0	0	1	12301,06	-0,100000001	0,99987793	-0,0002777330531146791	-0,099983900331808896	9,9971694E-005	-0,018329047651900973	0,00068388141155909082	0,018329047651900973
1	0	0	1	0	0	1	12361,06	-0,100000001	0,962967455	-0,00027773537358600234	-0,099984735701495386	9,62820486E-005	-0,01999545867132681	0,00074605744720731354	0,01999545867132681
1	0	0	1	0	0	1	12421,06	-0,100000001	0,94255501	-0,00027773505328098931	-0,099984620391689306	9,42410043E-005	-0,021661868263990061	0,00080823342962110566	0,021661868263990061
1	0	0	1	0	0	1	12481,06	-0,100000001	0,930582523	-0,0002777356420751247	-0,099984832357580595	9,30441383E-005	-0,023328281237421725	0,00087040953817591283	0,023328281237421725
1	0	0	1	0	0	1	12541,06	-0,100000001	0,920481324	-0,00027773583768556515	-0,099984902777340006	9,20342354E-005	-0,024994696853845859	0,00093258574534432256	0,024994696853845859
1	0	0	1	0	0	1	12601,06	-0,100000001	0,909253478	-0,00027773553584226301	-0,099984794113749926	9,09115188E-005	-0,026661111889388374	0,00099476193083925811	0,026661111889388374
1	0	0	1	0	0	1	12661,06	-0,100000001	0,896459937	-0,00027773478751091494	-0,099984524714461376	8,96321217E-005	-0,028327522649318358	0,0010569379568053416	0,028327522649318358
1	0	0	1	0	0	1	12721,06	-0,100000001	0,882864356	-0,00027773474540975357	-0,099984509558043098	8,82727618E-005	-0,029993934410998765	0,0011191140201480802	0,029993934410998765
1	0	0	1	0	0	1	12781,06	-0,100000001	0,868886888	-0,00027773528125592403	-0,09998470246266679	8,68753996E-005	-0,031660344857912051	0,0011812900344350896	0,031660344857912051
1	0	0	1	0	0	1	12841,06	-0,100000001	0,854432046	-0,00027773571394466694	-0,099984858230616115	8,54302634E-005	-0,033326756568151181	0,001243466095858485	0,033326756568151181
1	0	0	1	0	0	1	12901,06	-0,100000001	0,839786232	-0,00027773502655203146	-0,099984610769264346	8,39657005E-005	-0,034993167498535123	0,0013056421281844347	0,034993167498535123
1	0	0	1	0	0	1	12961,06	-0,100000001	0,824739456	-0,0002777356560561392	-0,099984837390745882	8,24614399E-005	-0,036659579233009741	0,0013678181905120888	0,036659579233009741
1	0	0	1	0	0	1	13021,06	-0,100000001	0,809387147	-0,00027773592045158147	-0,099984932573106253	8,09265184E-005	-0,038325993251275232	0,001429994338051051	0,038325993251275232
1	1	0	0	0	0	2	13067,70	0,100000001	0,83353579	0,00027780758996018106	0,10001073359651448	8,33625236E-005	-0,039065548801261472	0,0014575881499640496	0,0002778130784208576
1	1	0	0	0	0	2	13127,70	0,100000001	0,86185354	0,00027780906249996691	0,10001126371084381	8,61950612E-005	-0,037398697361588435	0,0013953956816442526	0,0019446645180938973
1	1	0	0	0	0	2	13187,70	0,100000001	0,884614646	0,00027780843226611613	0,10001103682665477	8,84712281E-005	-0,035731846010266861	0,0013332032166209677	0,0036115158694154682
1	1	0	0	0	0	2	13247,70	0,100000001	0,905695438	0,0002778087187666032	0,10001113996683138	9,05796333E-005	-0,034064994709319078	0,0012710107534771965	0,0052783671703632506
1	1	0	0	0	0	2	13307,70	0,100000001	0,925554156	0,00027780876081933581	0,1000111551058153	9,25657368E-005	-0,032398141439870784	0,0012088182168860246	0,0069452204398115469
1	1	0	0	0	0	2	13367,70	0,100000001	0,94441992	0,00027780856220548355	0,10001108360482762	9,44524581E-005	-0,030731289626323469	0,0011466257346164758	0,0086120722533588595
1	1	0	0	0	0	2	13427,70	0,100000001	0,962273657	0,00027780891737714406	0,10001121146662694	9,62381528E-005	-0,029064437856120326	0,0010844332539641563	0,01027892402356201
1	1	0	0	0	0	2	13487,70	0,100000001	0,981597722	0,00027780879555021728	0,10001116760893277	9,81707344E-005	-0,027397585962497894	0,001022240768706897	0,011945775917184438
1	1	0	0	0	0	2	13547,70	0,100000001	1,02923954	0,00027780862560247386	0,1000111064277444	0,000102935388	-0,025730734098818522	0,0009600482845668535	0,013612627780863811
1	1	0	0	0	0	2	13607,70	0,100000001	1,0882237	0,00027780841816961763	0,10001103175191526	0,000108834378	-0,024063884211431728	0,00089785587416494336	0,015279477668250602
1	1	0	0	0	0	2	13667,70	0,100000001	1,13832867	0,00027780836641291779	0,10001101311950307	0,000113845403	-0,022397034658084262	0,00083566347622648986	0,016946327221598064
1	1	0	0	0	0	2	13727,70	0,100000001	1,18253338	0,00027780829366586272	0,10001098693056296	0,000118266333	-0,020730185032297706	0,00077347107558523622	0,018613176847384624
1	1	0	0	0	0	2	13787,70	0,100000001	1,22566879	0,00027780790099129082	0,10001084556771536	0,000122580168	-0,019063336749377296	0,00071127872504812416	0,02028002513030503
1	1	0	0	0	0	2	13847,70	0,100000001	1,26951075	0,00027780789101041024	0,1000108419745983	0,000126964835	-0,017396489800321094	0,00064908642427927898	0,021946872079361232
1	1	0	0	0	0	2	13907,70	0,100000001	1,31444108	0,00027780780893647008	0,10001081242797949	0,000131458321	-0,015729641473799478	0,0005868940721153472	0,023613720405882848
1	1	0	0	0	0	2	13967,70	0,100000001	1,36032605	0,00027780837524599498	0,10001101629941091	0,000136047587	-0,01406279283058721	0,0005247017081352615	0,025280569049095117
1	1	0	0	0	0	2	14027,70	0,100000001	1,36572993	0,00027780866390342512	0,10001112021608702	0,000136588176	-0,012395941080721664	0,00046250922824176506	0,026947420798960662
1	1	0	0	0	0	2	14087,70	0,100000001	1,38241887	0,0002778081705851687	0,10001094262151256	0,000138257019	-0,010729089864498573	0,00040031676825918605	0,028614272015183754
1	1	0	0	0	0	2	14147,70	0,100000001	1,43061447	0,00027780798112518253	0,10001087441591674	0,000143077006	-0,0090622375465030784	0,00033812426716799731	0,030281124333179245
1	1	0	0	0	0	2	14207,70	0,100000001	1,57712972	0,00027780801495164637	0,10001088659344384	0,000157730145	-0,0073953861758451802	0,000275931801423248	0,031947975703837146
1	1	0	0	0	0	2	14267,70	0,100000001	2,66271973	0,00027780807688252797	0,10001090888856149	0,000266301009	-0,0057285369323872339	0,00021373941504718896	0,033614824947295085
1	1	0	0	0	0	2	14327,70	0,100000001	3,20608449	0,00027780835387607411	0,10001100860623933	0,00032064374	-0,004061686758595984	0,00015154699395914349	0,03528167512108633
1	1	0	0	0	0	2	14387,70	0,100000001	3,45248508	0,00027780831328324147	0,10001099399281938	0,000345286477	-0,002394836935964257	8,9354585973331994E-005	0,036948524943718061
1	1	0	0	0	0	2	14447,70	0,100000001	3,58334255	0,0002778086085692048	0,10001110029576746	0,000358374033	-0,00072798490677478963	2,7162095657884442E-005	0,038615376972907533
1	1	0	0	0	0	2	14507,70	0,100000001	3,70045161	0,00027780856346587341	0,10001108405856797	0,000370086171	0,0009388664650031785	-3,5030370128656179E-005	0,040282228344685504
1	1	0	0	0	0	2	14567,70	0,100000001	3,83409691	0,00027780880364982621	0,10001117052479203	0,000383452512	0,0026057190259095386	-9,7222880283175898E-005	0,041949080905591866
1	1	0	0	0	0	2	14627,70	0,100000001	3,95796537	0,0002778091590160297	0,10001129845662683	0,000395841256	0,004272572120291129	-0,00015941541034237373	0,043615933999973446
1	1	0	0	0	0	2	14687,70	0,100000001	4,07814884	0,00027780882323823046	0,10001117757661763	0,000407860469	0,0059394257373760666	-0,00022160795990433622	0,045282787617058387
1	1	0	0	0	0	2	14747,70	0,100000001	4,19877863	0,00027780857693072816	0,10001108890591576	0,000419924414	0,0076062782515151322	-0,00028380046831390534	0,046949640131197459
1	1	0	0	0	0	2	14748,36	0,100000001	4,19992447	1,8557562223739094E-005	0,10001081559000368	0,000420037861	0,007624835813738871	-0,00028449287591138083	0,046968197693421197