File: Experimentelles/Rohdaten/Batteriemessungen/AlteZelle/Studenten_Batterietests/LLTO_LP30_Li CV/ECLab-Export/LLTO_LP30_Li_05_GCPL_C01.mpt
EC-Lab ASCII FILE
Nb header lines : 89

Galvanostatic Cycling with Potential Limitation

Run on channel : 1 (SN 6985)
Grouped channel(s) : 1
User :
CE vs. WE compliance from -10 V to 10 V
Electrode connection : standard
Ewe ctrl range : min = 0,00 V, max = 5,00 V
Acquisition started on : 04.29.2015 11:07:38
Saved on :
	File : LLTO_LP30_Li_05_GCPL_C01.mpr
	Directory : C:\Hupfer\Studenten Batterietests\LLTO_LP30_Li CV\
	Host : 192.168.0.2
Device : VMP3 (SN 0324)
Address : 192.168.0.1
EC-Lab for windows v10.33 (software)
Internet server v10.33 (firmware)
Command interpretor v10.32 (firmware)
Electrode material : LATP vs Li
Initial state : charged
Electrolyte : DME:Diox 1:2, 1M LiTFSi
Comments : LATP als Elektrode, normaler Seperator und Elektrolyt, Goldschicht teilweise vorhanden, elektrolytschonend, Probe2
Mass of active material : 0,001 mg
 at x = 0,000
Molecular weight of active material (at x = 0) : 0,001 g/mol
Atomic weight of intercalated ion : 0,001 g/mol
Acquisition started at : xo = 0,000
Number of e- transfered per intercalated ion : 1
for DX = 1, DQ = 26,801 mA.h
Battery capacity : 0,000 A.h
Reference electrode : Li+/Li (-3,020 V)
Electrode surface area : 0,001 cm²
Characteristic mass : 0,001 g
Create one data file per loop
Ns                  0                   1                   2
Set I/C             I                   I                   I
Is                  0,000               -100,000            100,000
unit Is             mA                  µA                  µA
vs.                 <None>              <None>              <None>
N                   1                   1                   1
I sign              > 0                 > 0                 > 0
t1 (h:m:s)          0:00:0,0000         10:00:0,0000        10:00:0,0000
I Range             100 µA              100 µA              100 µA
Bandwidth           5                   5                   5
dE1 (mV)            0,00                0,00                0,00
dt1 (s)             0,0000              10,0000             10,0000
EM (V)              0,000               0,500               4,200
tM (h:m:s)          0:00:0,0000         0:00:0,0000         0:00:0,0000
Im                  0,000               0,000               0,000
unit Im             mA                  mA                  mA
E range min (V)     0,000               0,000               0,000
E range max (V)     5,000               5,000               5,000
dq                  0,000               1,000               1,000
unit dq             mA.h                mA.h                mA.h
dtq (s)             0,0000              120,0000            120,0000
dQM                 0,000               0,000               0,000
unit dQM            mA.h                mA.h                mA.h
dxM                 0,000               0,000               0,000
tR (h:m:s)          0:00:0,0000         0:00:0,0000         0:00:0,0000
dER/dt (mV/h)       0,0                 0,1                 0,1
dER (mV)            0,00                5,00                5,00
dtR (s)             1,0000              120,0000            120,0000
EL (V)              pass                4,200               4,200
goto Ns'            0                   0                   0
nc cycles           0                   0                   0

Modify on : 04.29.2015 11:48
Comments :
Create one data file for all loops
Ns                  0                   1                   2
EM (V)                                  0,800

Number of loops : 11
Loop 0 from point number 0 to 313
Loop 1 from point number 314 to 632
Loop 2 from point number 633 to 948
Loop 3 from point number 949 to 1261
Loop 4 from point number 1262 to 1572
Loop 5 from point number 1573 to 1881
Loop 6 from point number 1882 to 2189
Loop 7 from point number 2190 to 2495
Loop 8 from point number 2496 to 2800
Loop 9 from point number 2801 to 3104
Loop 10 from point number 3105 to 3407

mode	ox/red	error	control changes	Ns changes	counter inc.	Ns	time/s	control/V/mA	Ewe/V	dq/mA.h	<I>/mA	P/W	(Q-Qo)/mA.h	x	Capacity/mA.h
1	0	0	1	1	0	1	11641,0644	-0,100000001	2,25884342	0	0	0	0	0	0
1	0	0	1	0	0	1	12241,0644	-0,100000001	1,05510044	-0,0002777337127485209	-0,099984137799994829	0,000105493309	-0,016662644833485245	0,00062170568190158182	0,016662644833485245
1	0	0	1	0	0	1	12841,0644	-0,100000001	0,854432046	-0,00027773571394466694	-0,099984858230616115	8,54302634E-005	-0,033326756568151181	0,001243466095858485	0,033326756568151181
1	1	0	0	0	0	2	13427,6958	0,100000001	0,962273657	0,00027780891737714406	0,10001121146662694	9,62381528E-005	-0,029064437856120326	0,0010844332539641563	0,01027892402356201
1	1	0	0	0	0	2	14027,6958	0,100000001	1,36572993	0,00027780866390342512	0,10001112021608702	0,000136588176	-0,012395941080721664	0,00046250922824176506	0,026947420798960662
1	1	0	0	0	0	2	14627,6958	0,100000001	3,95796537	0,0002778091590160297	0,10001129845662683	0,000395841256	0,004272572120291129	-0,00015941541034237373	0,043615933999973446
1	0	0	1	0	0	1	15208,4144	-0,100000001	1,24580121	-0,00027773430920516448	-0,09998435252438912	0,000124560625	-0,0051495588482398381	0,00019213696428333635	0,01277439466197871
1	0	0	1	0	0	1	15808,4144	-0,100000001	0,911468506	-0,00027773549386072493	-0,099984779000396032	9,11329771E-005	-0,021813659827921069	0,00081389697695729984	0,029438495641659936
1	1	0	0	0	0	2	16391,2305	0,100000001	0,881425798	0,0002778090053651896	0,10001124314232371	8,81524902E-005	-0,031333997046726368	0,0011691135588204531	0,0033337095182289677
1	1	0	0	0	0	2	16991,2305	0,100000001	1,21743894	0,00027780875845460422	0,10001115425451194	0,000121757475	-0,014665469436042339	0,00054718838259210656	0,020002237128912986
1	1	0	0	0	0	2	17591,2305	0,100000001	3,43510866	0,00027780910672123235	0,10001127963049955	0,000343549618	0,002003063437727263	-7,4736990009039168E-005	0,036670770002682586
1	0	0	1	0	0	1	18177,4181	-0,100000001	1,33592927	-0,00027773352320616445	-0,099984069564745664	0,000133571652	0,0032882012429995123	-0,0001226872094099029	0,0074974419531379878
1	0	0	1	0	0	1	18777,4181	-0,100000001	0,945782065	-0,00027773504357371066	-0,099984616897068941	9,45636566E-005	-0,013375841625810053	0,0004990706350693079	0,024161484821947558
1	0	0	1	0	0	1	19377,4181	-0,100000001	0,811143875	-0,00027773573322014675	-0,099984865169788928	8,11021091E-005	-0,030039981751467994	0,0011208321083322949	0,040825624947605491
1	1	0	0	0	0	2	19959,1459	0,100000001	1,07552552	0,00027780809541005226	0,10001091555847032	0,000107564294	-0,016197238077195962	0,00060434073007838976	0,015001656915504893
1	1	0	0	0	0	2	20559,1459	0,100000001	1,49185181	0,00027780918414269882	0,10001130750222784	0,000149202053	0,0004713029961921465	-1,7584948461546803E-005	0,031670197988893011
1	0	0	1	0	0	1	21141,4935	-0,100000001	1,5342871	-0,00027773411653687555	-0,09998428316380425	0,000153404602	0,010538459548658086	-0,00039320409486999187	0,0030536998700498509
1	0	0	1	0	0	1	21741,4935	-0,100000001	1,0456866	-0,00027773393105011846	-0,099984216388570893	0,000104552157	-0,0061255782553746957	0,00022855356063558742	0,019717737674082618
1	0	0	1	0	0	1	22341,4935	-0,100000001	0,850422084	-0,00027773569902032614	-0,099984852857853376	8,50293291E-005	-0,022789709582009139	0,00085031470559517722	0,036381869000717056
1	1	0	0	0	0	2	22927,3591	0,100000001	0,967849374	0,00027780897997568051	0,10001123400210034	9,67958113E-005	-0,017395050155687549	0,00064903270920237862	0,010834540365132608
1	1	0	0	0	0	2	23527,3591	0,100000001	1,36979723	0,00027780846178573043	0,10001104745371605	0,000136994859	-0,00072653667383215526	2,7108060139624848E-005	0,027503053846988
1	1	0	0	0	0	2	24127,3591	0,100000001	4,19310045	0,00027780873031293354	0,10001114412351034	0,000419356773	0,015941980188345859	-0,00059481671504751078	0,044171570709166016
1	0	0	1	0	0	1	24711,1526	-0,100000001	1,15679991	-0,00027773347078139581	-0,099984050691828736	0,00011566154	-6,123325996840265E-005	2,2846952584147402E-006	0,016107197122924086
1	0	0	1	0	0	1	25311,1526	-0,100000001	0,880954862	-0,00027773615313279958	-0,099985016338345779	8,80822845E-005	-0,016725347724268778	0,00062404521106164877	0,032771311587224448
1	1	0	0	0	0	2	25891,4000	0,100000001	0,928552032	0,00027780792722809642	0,10001085501296549	9,28652807E-005	-0,018396753595809498	0,00068640761135792768	0,0072230111042948237
1	1	0	0	0	0	2	26491,4000	0,100000001	1,31587315	0,00027780763439296019	0,10001074959231517	0,000131601453	-0,0017283062216473395	6,4485428862091302E-005	0,023891458478456979
1	1	0	0	0	0	2	27091,4000	0,100000001	3,9042325	0,00027780652476598822	0,10001035012660042	0,000390463654	0,014940098922419517	-0,00055743517797211046	0,040559863622523827
1	0	0	1	0	0	1	27681,1014	-0,100000001	1,23415339	-0,00027773807372152803	-0,099985707750296397	0,000123397695	0,0052117801179564909	-0,00019445852351385152	0,013052294380378253
1	0	0	1	0	0	1	28281,1014	-0,100000001	0,906331956	-0,0002777403677105904	-0,099986533586368845	9,06209898E-005	-0,011452556992167624	0,00042731029950441677	0,029716631490502374
1	1	0	0	0	0	2	28869,6934	0,100000001	0,894353092	0,00027780564995068643	0,10001003519308795	8,94442855E-005	-0,01891135820647103	0,00070560820127496717	0,0044449057222824128
1	1	0	0	0	0	2	29469,6934	0,100000001	1,23945534	0,00027780644429185328	0,10001032115591147	0,000123958322	-0,0022429714738240467	8,368828139559529E-005	0,021113292454929408
1	1	0	0	0	0	2	30069,6934	0,100000001	3,59888577	0,00027780669077485802	0,10001040988979427	0,000359926053	0,014425424429012029	-0,00053823198063586118	0,037781688357765485
1	0	0	1	0	0	1	30658,9794	-0,100000001	1,29065514	-0,00027773842891760995	-0,099985835620887437	0,000129047228	0,0096854336194379584	-0,00036137655054522912	0,010552681430896302
1	0	0	1	0	0	1	31258,9794	-0,100000001	0,924032927	-0,00027773991765206061	-0,099986371565296166	9,23906991E-005	-0,0069788823290719629	0,00026039148290476144	0,027216997379406221
1	1	0	0	0	0	2	31843,4154	0,100000001	0,860975146	0,00027780600844240851	0,10001016425010947	8,61062654E-005	-0,019322150751361398	0,00072093542344127757	0,0019446442629877062
1	1	0	0	0	0	2	32443,4154	0,100000001	1,17426538	0,00027780646077626282	0,10001032709029899	0,000117438663	-0,0026537668121775763	9,9015607789772083E-005	0,018613028202171546
1	1	0	0	0	0	2	33043,4153	0,100000001	3,1419065	0,00027780692674219606	0,10001049344090653	0,000314223609	0,014014608252866819	-0,00052290387675565997	0,03528140326721593
1	0	0	1	0	0	1	33630,8188	-0,100000001	1,31775081	-0,00027773823524349264	-0,099985764501419341	0,000131756329	0,013666688261607091	-0,00050992251409835622	0,0083307689687327821
1	0	0	1	0	0	1	34230,8188	-0,100000001	0,936998367	-0,00027774006327241661	-0,099986422591830758	9,36871147E-005	-0,0029976226503037235	0,00011184533142935002	0,0249950798806436
1	1	0	0	1	0	2	34820,4934	0,100000001	0,811722279	5,4884246653980678E-009	0,032930549622955008	2,67304604E-005	-0,019375215366017437	0,00072291533556022758	5,4884246653980678E-009
1	1	0	0	0	0	2	35420,4934	0,100000001	1,12089503	0,00027780715021491046	0,10001057389108355	0,000112101356	-0,002706806900067825	0,00010099460478211389	0,016668413954374275
1	1	0	0	0	0	2	36020,4934	0,100000001	2,28878427	0,00027780699778555168	0,1000105190165145	0,0002289025	0,013961571900904643	-0,00052092501915581754	0,033336792755346758
1	0	0	1	0	0	1	36607,2780	-0,100000001	1,35508144	-0,0002777372687438296	-0,099985416561541325	0,000135488386	0,016929756062564739	-0,0006316719609934048	0,0066643285655975898
1	0	0	1	0	0	1	37207,2780	-0,100000001	0,949524641	-0,00027773996436761488	-0,099986386986102208	9,49395398E-005	0,00026546386498873632	-9,9048137226922509E-006	0,023328620763173594
1	0	0	1	0	0	1	37807,2780	-0,100000001	0,812461436	-0,0002777398300870425	-0,09998633864509623	8,12350409E-005	-0,016398941305115837	0,0006118665487049545	0,039993025933278163
1	1	0	0	0	0	2	38393,6296	0,100000001	1,06563437	0,00027780751188389133	0,10001070409191642	0,000106574844	-0,0026847092465017574	0,0001001701116169527	0,015001583184045638
1	1	0	0	0	0	2	38993,6296	0,100000001	1,47285235	0,00027780699273861117	0,1000105171996159	0,000147300729	0,013983698504573338	-0,00052175059248823162	0,031669990935120736
1	0	0	1	0	0	1	39581,1550	-0,100000001	1,39476061	-0,00027773783571935366	-0,099985620672729587	0,000139456009	0,019750199779498458	-0,00073690650819911053	0,0052756435735287974
1	0	0	1	0	0	1	40181,1550	-0,100000001	0,966805518	-0,00027773976614574589	-0,099986315626229504	9,66673251E-005	0,0030859082061449318	-0,00011513938421897776	0,021939935146882333
1	0	0	1	0	0	1	40781,1550	-0,100000001	0,824586689	-0,00027773941697925325	-0,099986189926292378	8,24472809E-005	-0,013578478892991978	0,00050663130395656877	0,038604322246019251
1	1	0	0	0	0	2	41363,5686	0,100000001	1,01279879	0,0002778076897325615	0,1000107681174376	0,000101290781	-0,0025325674638380134	9,4493497148966054E-005	0,013612584128663357
1	1	0	0	0	0	2	41963,5686	0,100000001	1,41581595	0,00027780583278752038	0,100010099617224	0,000141595898	0,014135856856988912	-0,00052742782519593734	0,030281008449490291
1	0	0	1	0	0	1	42552,7362	-0,100000001	1,43380976	-0,00027773709019190733	-0,099985352282849408	0,000143359968	0,022170147635637728	-0,00082719801636616358	0,0041646860868443571
1	0	0	1	0	0	1	43152,7362	-0,100000001	0,990521431	-0,00027773917107159894	-0,099986101399536998	9,90383778E-005	0,0055058777574737965	-0,000205431701862724	0,020828955965008291
1	0	0	1	0	0	1	43752,7362	-0,100000001	0,833981395	-0,00027773937020906141	-0,09998617308902336	8,3386607E-005	-0,01115849233969399	0,00041633835194649523	0,037493326062176083
1	1	0	0	0	0	2	44341,0288	0,100000001	0,989598453	0,00027780723193370637	0,10001060330985002	9,89703403E-005	-0,0019425242096783264	7,2478190014675546E-005	0,012779142105246166
1	1	0	0	0	0	2	44941,0288	0,100000001	1,39248192	0,0002778080933321681	0,10001091341329568	0,000139263386	0,014725912239487232	-0,00054944358485484896	0,029447578554411725
1	1	0	0	0	0	2	45402,0912	0,100000001	4,20005798	2,9514360639784077E-005	0,10001101101275267	0,000420052034	0,027534599263061091	-0,0010273529191672517	0,042256265577985574