File: Experimentelles/Rohdaten/Batterietests/AlteZelle/Studenten_Batterietests/LiNiMnO_LATP_LTO-Spinell/CV2/ZView-Export/LiNiMnO-LATP-LTO_Spinell_01_CV_C01.txt
EC-Lab ASCII FILE
Nb header lines : 61

Cyclic Voltammetry

Run on channel : 1 (SN 6985)
Grouped channel(s) : 1
User :
CE vs. WE compliance from -10 V to 10 V
Electrode connection : standard
Ewe ctrl range : min = -5,00 V, max = 5,00 V
Acquisition started on : 02.10.2015 14:44:20
Saved on :
	File : LiNiMnO-LATP-LTO_Spinell_01_CV_C01.mpr
	Directory : C:\Hupfer\Studenten Batterietests\LiNiMnO_LATP_LTO-Spinell\CV2\
	Host : 192.168.0.2
Device : VMP3 (SN 0324)
Address : 192.168.0.1
EC-Lab for windows v10.33 (software)
Internet server v10.33 (firmware)
Command interpretor v10.32 (firmware)
Electrode material :
Initial state :
Electrolyte :
Comments :
Mass of active material : 0,001 mg
 at x = 0,000
Molecular weight of active material (at x = 0) : 0,001 g/mol
Atomic weight of intercalated ion : 0,001 g/mol
Acquisition started at : xo = 0,000
Number of e- transfered per intercalated ion : 1
for DX = 1, DQ = 26,801 mA.h
Battery capacity : 0,000 A.h
Electrode surface area : 0,001 cm²
Characteristic mass : 0,001 g
Ei (V)              0,000
vs.                 Eoc
dE/dt               20,000
dE/dt unit          mV/s
E1 (V)              1,000
vs.                 Ref
Step percent        50
N                   10
E range min (V)     -5,000
E range max (V)     5,000
I Range             Auto
Bandwidth           5
E2 (V)              -1,000
vs.                 Ref
nc cycles           0
Reverse Scan        1
Ef (V)              0,000
vs.                 Eoc

Number of loops : 4
Loop 0 from point number 0 to 2003
Loop 1 from point number 2004 to 4007
Loop 2 from point number 4008 to 6013
Loop 3 from point number 6014 to 6488

mode	ox/red	error	control changes	counter inc.	time/s	control/V	Ewe/V	<I>/mA	cycle number	(Q-Qo)/C	P/W
2	1	0	1	0	0,0000	0,353876591	0,354697287	-2,0969322577002458E-005	1	0	7,43776196E-009
2	1	0	1	0	6,5555	0,484986275	0,485458463	0,00017591113788428899	1	5,68437315E-007	8,53975521E-008
2	1	0	0	0	13,1560	0,616992593	0,617580414	0,00034736974311710099	1	2,30142291E-006	2,14528754E-007
2	1	0	0	0	19,7564	0,749000669	0,749610126	0,00051326978670355322	1	5,14615158E-006	3,84752241E-007
2	1	0	0	0	26,3568	0,881008804	0,881586373	0,00067477841750789734	1	9,07065532E-006	5,94875473E-007
2	0	0	0	0	32,8576	0,988815308	0,989432514	0,00079507401190952525	1	1,39550002E-005	7,86672103E-007
2	0	0	0	0	39,4580	0,856807232	0,857451797	0,00058477626353797658	1	1,84892851E-005	5,01417446E-007
2	0	0	0	0	46,0584	0,724799216	0,725439847	0,00039182995849976634	1	2,17056622E-005	2,84249069E-007
2	0	0	0	0	52,6588	0,59279108	0,593414605	0,00020720246491826531	1	2,36773012E-005	1,22956962E-007
2	0	0	0	0	59,2592	0,460782975	0,461371511	2,8733107969687523E-005	1	2,44511393E-005	1,32566376E-008
2	0	0	0	0	65,8596	0,328774929	0,329315066	-0,00014442381448302662	1	2,40648897E-005	4,75609383E-008
2	0	0	0	0	72,4600	0,196766838	0,197222948	-0,00031293346182792493	1	2,2551485E-005	6,17176568E-008
2	0	0	0	0	79,0604	0,0647587776	0,0652422458	-0,00047768987470017523	1	1,99390633E-005	3,1165559E-008
2	0	0	0	0	85,6608	-0,0672493279	-0,0665112808	-0,0006384659388492791	1	1,62531669E-005	4,24651887E-008
2	0	0	0	0	92,2612	-0,199257493	-0,198630184	-0,00079657200600464525	1	1,15143639E-005	1,58223244E-007
2	0	0	0	0	98,8616	-0,331265628	-0,33079809	-0,00095181047355355136	1	5,74125488E-006	3,1485709E-007
2	0	0	0	0	105,4620	-0,463273793	-0,462654114	-0,0011055173683282085	1	-1,05109962E-006	5,11472138E-007
2	0	0	0	0	112,0624	-0,595281899	-0,594697237	-0,001257604722518915	1	-8,85176996E-006	7,47894035E-007
2	0	0	0	0	118,6628	-0,727290034	-0,726686954	-0,0014084145330815339	1	-1,76511167E-005	1,02347644E-006
2	0	0	0	0	125,2632	-0,859298229	-0,858672142	-0,0015587578503376186	1	-2,74446538E-005	1,33846197E-006
2	0	0	0	0	131,8636	-0,991306305	-0,990759909	-0,0017084438408750816	1	-3,8229191E-005	1,69265763E-006
2	1	0	0	1	138,3545	-0,878898919	-0,878173947	-0,0015118016015913341	1	-4,87319667E-005	1,32762477E-006
2	1	0	1	1	144,9550	-0,746891201	-0,746219158	-0,0013066566135859371	1	-5,80266096E-005	9,75052217E-007
2	1	0	1	1	151,5554	-0,614883125	-0,614305258	-0,0011098583532589933	1	-6,59965299E-005	6,81791846E-007
2	1	0	1	1	158,1558	-0,48287499	-0,482195318	-0,00091834150212148813	1	-7,26858925E-005	4,42819982E-007
2	1	0	1	1	164,7562	-0,350866824	-0,350250125	-0,00073216648760771046	1	-7,8129975E-005	2,5644141E-007
2	1	0	1	1	171,3566	-0,218858719	-0,218153521	-0,00055001849108925018	1	-8,2357772E-005	1,19988471E-007
2	1	0	1	1	177,9570	-0,0868505463	-0,0862618312	-0,00037197636195034771	1	-8,53975653E-005	3,20873639E-008
2	1	0	1	1	184,5574	0,0451575816	0,0456610024	-0,00019762640547721994	1	-8,72739256E-005	9,02381991E-009
2	1	0	1	1	191,1578	0,177165657	0,17779319	-2,6655162592440374E-005	1	-8,80104999E-005	4,73910644E-009
2	1	0	1	1	197,7582	0,309173733	0,30955112	0,0001413930463395783	1	-8,76284394E-005	4,37683774E-008
2	1	0	1	0	204,2584	0,437381566	0,43788293	0,00030156471553642336	2	1,04298977E-006	1,32050047E-007
2	1	0	1	0	210,8588	0,569389641	0,569925964	0,00046404695267146438	2	3,57243243E-006	2,64472419E-007
2	1	0	1	0	217,4592	0,701397717	0,702071607	0,00062402308247800358	2	7,16541626E-006	4,38108884E-007
2	1	0	1	0	224,0596	0,833405793	0,833874047	0,00078113868598679578	2	1,18051184E-005	6,51371295E-007
2	1	0	1	0	230,6600	0,965413868	0,96581912	0,0009361760841986519	2	1,74758388E-005	9,04176773E-007
2	0	0	1	0	237,1408	0,90481025	0,905435801	0,00081311221422058701	2	2,33646078E-005	7,36220898E-007
2	0	0	1	0	243,7412	0,772802114	0,773539841	0,00061005452126092122	2	2,80524237E-005	4,71901473E-007
2	0	0	1	0	250,3416	0,640794039	0,641309619	0,00041625325825912698	2	3,14334793E-005	2,66947211E-007
2	0	0	1	0	256,9420	0,508785963	0,509502649	0,00022961851179085619	2	3,35596778E-005	1,16991238E-007
2	0	0	1	0	263,5424	0,376777887	0,377325892	4,8359545164405363E-005	2	3,4472243E-005	1,82473077E-008
2	0	0	1	0	270,1428	0,244769797	0,24528721	-0,00012772258577132102	2	3,42060957E-005	3,13287174E-008
2	0	0	1	0	276,7432	0,112761714	0,113507003	-0,00029556633516794592	2	3,27939561E-005	3,35488473E-008
2	0	0	1	0	283,3436	-0,0192463752	-0,0188078657	-0,0004669478987327433	2	3,02628159E-005	8,78229311E-009
2	0	0	1	0	289,9440	-0,151254505	-0,150641605	-0,000630856381340656	2	2,6638505E-005	9,50332151E-008
2	0	0	1	0	296,5444	-0,28326267	-0,282622367	-0,00079183375904297651	2	2,19416925E-005	2,23789925E-007
2	0	0	1	0	303,1448	-0,415270805	-0,414607614	-0,0009493788047284009	2	1,61934222E-005	3,93619672E-007
2	0	0	1	0	309,7452	-0,547278941	-0,546624064	-0,0011054386729180522	2	9,41066264E-006	6,04259355E-007
2	0	0	1	0	316,3456	-0,679287016	-0,678742886	-0,0012598334855014101	2	1,60275602E-006	8,55102996E-007
2	0	0	1	0	322,9460	-0,811295271	-0,810652554	-0,0014129505131374349	2	-7,21888182E-006	1,14541194E-006
2	0	0	0	0	329,5466	-0,943303823	-0,942522466	-0,0015657944841810554	2	-1,70504991E-005	1,47579647E-006
2	1	0	0	1	336,0374	-0,926902413	-0,926184058	-0,0015038972148128522	2	-2,73047881E-005	1,39288568E-006
2	1	0	0	1	342,6378	-0,794894218	-0,79429239	-0,0012975958242249264	2	-3,65416163E-005	1,03067043E-006
2	1	0	0	1	349,2382	-0,662886083	-0,6622715	-0,0011008752978038158	2	-4,4451499E-005	7,29078351E-007
2	1	0	0	1	355,8386	-0,530877948	-0,53016597	-0,00091032396193002982	2	-5,10852769E-005	4,82622795E-007
2	1	0	0	1	362,4390	-0,398869812	-0,398118407	-0,00072488726025902144	2	-5,64787042E-005	2,88590968E-007
2	1	0	0	1	369,0394	-0,266861647	-0,266262352	-0,00054350595113377382	2	-6,06614049E-005	1,44715173E-007
2	1	0	0	1	375,6398	-0,134853512	-0,134330586	-0,00036622575118127744	2	-6,36611439E-005	4,9195318E-008
2	1	0	0	1	382,2402	-0,00284536183	-0,00233644387	-0,00019253199688709709	2	-6,55021213E-005	4,49840193E-010
2	1	0	0	1	388,8406	0,129162714	0,12964426	-2,232916652170999E-005	2	-6,62081948E-005	2,89484836E-009
2	1	0	0	1	395,4410	0,261170775	0,261919051	0,00014498597073287331	2	-6,58001445E-005	3,7974587E-008
2	1	0	0	0	401,9580	0,389978707	0,390509218	0,00030545048755609715	3	5,02319665E-007	1,19281225E-007
2	1	0	0	0	408,5584	0,521986723	0,522601306	0,00046698868950275066	3	3,05332492E-006	2,44048891E-007
2	1	0	0	0	415,1588	0,653994977	0,654492974	0,00062632393807386317	3	6,66376718E-006	4,0992461E-007
2	1	0	0	0	421,7592	0,786002874	0,786540508	0,00078329272192031654	3	1,13180276E-005	6,16091484E-007
2	1	0	0	0	428,3596	0,918011069	0,918810844	0,00093830805161377459	3	1,70021194E-005	8,62127592E-007
2	0	0	0	0	434,8104	0,952813208	0,953250647	0,00094817132318254438	3	2,33706105E-005	9,03844921E-007
2	0	0	0	0	441,4108	0,820805073	0,821488202	0,00073874843427027686	3	2,89269319E-005	6,0687313E-007
2	0	0	0	0	448,0112	0,688797057	0,68925792	0,00054183164825695373	3	3,31483134E-005	3,73461745E-007
2	0	0	0	0	454,6116	0,556788862	0,557504535	0,00035205414540676486	3	3,60939302E-005	1,96271785E-007
2	0	0	0	0	461,2120	0,424780786	0,425510436	0,0001682486170264183	3	3,78072E-005	7,15915434E-008
2	0	0	0	0	467,8125	0,29277271	0,293275893	-1,048720805264805E-005	3	3,83239676E-005	3,07564529E-009
2	0	0	1	0	474,4130	0,16076465	0,161197037	-0,00018440666252462176	3	3,76765711E-005	2,97258076E-008
2	0	0	1	0	481,0134	0,0287565738	0,0293677989	-0,00035429043513162189	3	3,58942962E-005	1,04047304E-008
2	0	0	1	0	487,6138	-0,103251562	-0,102599591	-0,00052011327103105632	3	3,30044641E-005	5,33634079E-008
2	0	0	1	0	494,2142	-0,235259682	-0,234562546	-0,00068274934124525069	3	2,90317403E-005	1,60147422E-007
2	0	0	1	0	500,8146	-0,367267847	-0,366895318	-0,00084231249355879232	3	2,39965466E-005	3,09040502E-007
2	0	0	1	0	507,4150	-0,499275982	-0,49872008	-0,00099901904225892762	3	1,79182116E-005	4,98230861E-007
2	0	0	1	0	514,0154	-0,631284058	-0,630620778	-0,0011538454488833859	3	1,0810968E-005	7,27638906E-007
2	0	0	1	0	520,6158	-0,763292253	-0,762565851	-0,001307545914406301	3	2,68525037E-006	9,97089842E-007
2	0	0	1	0	527,2162	-0,895300388	-0,894484222	-0,0014606980300784362	3	-6,45178761E-006	1,30657133E-006
2	1	0	1	1	533,7070	-0,974905312	-0,974168122	-0,0015349732307691418	3	-1,63731929E-005	1,49532195E-006
2	1	0	1	1	540,3074	-0,842897236	-0,842107236	-0,0013225950836689045	3	-2,57897773E-005	1,11376687E-006
2	1	0	1	1	546,9078	-0,710889041	-0,71013087	-0,001123884459149039	3	-3,38583668E-005	7,98105077E-007
2	1	0	1	1	553,5082	-0,578880966	-0,578132272	-0,00093208495484388941	3	-4,06392319E-005	5,38868392E-007
2	1	0	1	1	560,1086	-0,446872741	-0,44629398	-0,00074573127481185152	3	-4,61729396E-005	3,32815375E-007
2	1	0	1	1	566,7090	-0,314864606	-0,314246446	-0,0005637376418437456	3	-5,04908276E-005	1,77152543E-007
2	1	0	1	1	573,3094	-0,18285647	-0,182319134	-0,00038588206849386458	3	-5,36213302E-005	7,03536855E-008
2	1	0	1	1	579,9098	-0,0508483276	-0,0500754975	-0,00021166578982148272	3	-5,55897132E-005	1,05992699E-008
2	1	0	1	1	586,5102	0,0811597779	0,0818072259	-4,1095027237740141E-005	3	-5,64201619E-005	3,36187012E-009
2	1	0	1	1	593,1106	0,213167861	0,213716641	0,00012632581949758398	3	-5,61355337E-005	2,69979292E-008
2	1	0	1	1	599,7110	0,345175952	0,345871121	0,00029063813171551066	3	-5,47560303E-005	1,00523337E-007
2	1	0	1	0	606,0520	0,470983654	0,471520811	0,00044481937927937606	4	2,16185367E-006	2,097416E-007
2	1	0	1	0	612,6524	0,6029917	0,603608429	0,00060406952057005978	4	5,62573723E-006	3,64621457E-007
2	1	0	1	0	619,2528	0,734999835	0,735615849	0,00076095913263324493	4	1,0133198E-005	5,59773582E-007
2	1	0	1	0	625,8532	0,867007852	0,867547691	0,00091606645731156019	4	1,56704682E-005	7,94731363E-007
2	1	0	1	0	632,4486	0,99891597	0,999394655	0,0010692040912848242	4	2,22196395E-005	1,0685568E-006
2	0	0	0	0	638,9546	0,870808125	0,871388137	0,00085258979056056486	4	2,84522812E-005	7,42936606E-007
2	0	0	0	0	645,5550	0,738799989	0,739474177	0,00065170322132299251	4	3,34087017E-005	4,81917709E-007
2	0	0	0	0	647,4576	0,700697958	0,700984716	0,00058633276300194394	4	3,45945627E-005	4,11010319E-007