File: Experimentelles/Rohdaten/Batterietests/AlteZelle/Studenten_Batterietests/LiCoO2 vs Li 300µm GCPL/ZView-Export/LiCoO2 vs Li 300µm GCPL_02_GCPL_C04.txt
EC-Lab ASCII FILE
Nb header lines : 83

Galvanostatic Cycling with Potential Limitation

Run on channel : 4 (SN 5435)
Grouped channel(s) : 4
User :
CE vs. WE compliance from -10 V to 10 V
Electrode connection : standard
Ewe ctrl range : min = 0,00 V, max = 5,00 V
Acquisition started on : 01.23.2015 15:04:13
Saved on :
	File : LiCoO2 vs Li 300µm GCPL_02_GCPL_C04.mpr
	Directory : C:\Hupfer\Studenten Batterietests\LiCoO2 vs Li 300µm GCPL\
	Host : 192.168.0.2
Device : VMP3 (SN 0324)
Address : 192.168.0.1
EC-Lab for windows v10.33 (software)
Internet server v10.33 (firmware)
Command interpretor v10.32 (firmware)
Electrode material : LiCoO2 vs Li
Initial state : charged
Electrolyte : LP30
Comments : 300µm
Mass of active material : 0,001 mg
 at x = 0,000
Molecular weight of active material (at x = 0) : 0,001 g/mol
Atomic weight of intercalated ion : 0,001 g/mol
Acquisition started at : xo = 0,000
Number of e- transfered per intercalated ion : 1
for DX = 1, DQ = 26,801 mA.h
Battery capacity : 0,000 A.h
Reference electrode : Li+/Li (-3,020 V)
Electrode surface area : 0,001 cm²
Characteristic mass : 0,001 g
Create one data file per loop
Ns                  0                   1                   2
Set I/C             I                   I                   I
Is                  0,000               -300,000            300,000
unit Is             mA                  µA                  µA
vs.                 <None>              <None>              <None>
N                   1                   1                   1
I sign              > 0                 > 0                 > 0
t1 (h:m:s)          0:00:0,0000         10:00:0,0000        10:00:0,0000
I Range             1 mA                1 mA                1 mA
Bandwidth           5                   5                   5
dE1 (mV)            0,00                0,00                0,00
dt1 (s)             0,0000              10,0000             10,0000
EM (V)              0,000               2,000               4,200
tM (h:m:s)          0:00:0,0000         0:00:0,0000         0:00:0,0000
Im                  0,000               0,000               0,000
unit Im             mA                  mA                  mA
E range min (V)     0,000               0,000               0,000
E range max (V)     5,000               5,000               5,000
dq                  0,000               1,000               1,000
unit dq             mA.h                mA.h                mA.h
dtq (s)             0,0000              120,0000            120,0000
dQM                 0,000               0,000               0,000
unit dQM            mA.h                mA.h                mA.h
dxM                 0,000               0,000               0,000
tR (h:m:s)          0:00:0,0000         0:00:0,0000         0:00:0,0000
dER/dt (mV/h)       0,0                 0,1                 0,1
dER (mV)            0,00                5,00                5,00
dtR (s)             1,0000              120,0000            120,0000
EL (V)              pass                4,200               4,200
goto Ns'            0                   0                   0
nc cycles           0                   0                   0

Number of loops : 11
Loop 0 from point number 0 to 771
Loop 1 from point number 772 to 2142
Loop 2 from point number 2143 to 3475
Loop 3 from point number 3476 to 4763
Loop 4 from point number 4764 to 5978
Loop 5 from point number 5979 to 7086
Loop 6 from point number 7087 to 8050
Loop 7 from point number 8051 to 8874
Loop 8 from point number 8875 to 9572
Loop 9 from point number 9573 to 10146
Loop 10 from point number 10147 to 10656

mode	ox/red	error	control changes	Ns changes	counter inc.	Ns	time/s	control/V/mA	Ewe/V	dq/mA.h	<I>/mA	P/W	(Q-Qo)/mA.h	x	Capacity/mA.h
1	0	0	1	1	0	1	3600,0009	-0,300000012	2,81476045	0	0	0	0	0	0
1	1	0	0	0	0	2	5383,6313	0,300000012	3,87864399	0,0008338501863645184	0,30018607072563744	0,00116431492	0,14312410437049038	-0,0053401527664679366	0,14592100705437197
1	1	0	0	0	0	2	7183,6313	0,300000012	3,89854121	0,0008338481427729129	0,30018533503265062	0,00117028493	0,2932159765506441	-0,010940282318177866	0,29601287923452563
1	1	0	0	0	0	2	8983,6312	0,300000012	3,97126269	0,00083383945452504691	0,30018220726338099	0,00119210244	0,44330690067308339	-0,016540376496579798	0,44610380335696493
1	1	0	0	0	0	2	10783,6312	0,300000012	4,14366102	0,00083384119438959488	0,30018283361462586	0,00124385592	0,59339807740684224	-0,022140480100249702	0,59619498009072397
1	0	0	1	0	0	1	12565,4048	-0,300000012	3,99932003	-0,0008329150410112407	-0,29984941839438157	0,00119919376	0,52862499058927616	-0,019723709142744854	0,10660809897163941
1	0	0	1	0	0	1	14365,4048	-0,300000012	3,83766198	-0,00083291451485951731	-0,29984922897975891	0,00115071994	0,37869967320574803	-0,01412979397443233	0,25653341635516707
1	0	0	1	0	0	1	16165,4048	-0,300000012	3,75891232	-0,00083291317622529126	-0,29984874707143168	0,00112710521	0,22877551658559674	-0,0085359221157620557	0,40645757297531834
1	0	0	1	0	0	1	17965,4047	-0,300000012	3,20608139	-0,00083291162216828915	-0,29984818761090413	0,000961337704	0,078851306144661376	-0,002942048248965968	0,55638178341625389
1	1	0	0	0	0	2	19750,4399	0,300000012	3,86338258	0,00083382874938680064	0,30017835341356563	0,00115970382	0,19518537882878714	-0,007282628913634953	0,13257861993225253
1	1	0	0	0	0	2	21550,4399	0,300000012	3,90968227	0,00083382921956810688	0,30017852267883795	0,00117360265	0,3452758821098007	-0,012882707389877461	0,2826691232132665
1	1	0	0	0	0	2	23350,4399	0,300000012	4,02385807	0,00083383782260451059	0,30018161977198074	0,00120788824	0,49536689227678694	-0,018482804778717123	0,43276013338025274
1	0	0	1	0	0	1	25134,7528	-0,300000012	4,11517429	-0,00083290710953043571	-0,29984656306125722	0,00123392092	0,61581343646736051	-0,022976827284568422	0,01415519732399147
1	0	0	1	0	0	1	26934,7528	-0,300000012	3,92383265	-0,00083291091563469837	-0,29984793325880832	0,00117655308	0,46588985150383738	-0,017382976755175549	0,1640787822875152
1	0	0	1	0	0	1	28734,7528	-0,300000012	3,81307173	-0,00083292866332994573	-0,29985432242917478	0,00114336598	0,31596572763898298	-0,011789106118649442	0,31400290615236941
1	0	0	1	0	0	1	30534,7528	-0,300000012	3,76478791	-0,00083290136953857203	-0,29984449666416128	0,00112885097	0,16604149203219494	-0,0061952313128815552	0,46392714175915789
1	1	0	0	0	0	2	32324,7276	0,300000012	3,88486314	0,00083383140614959936	0,30017930984818477	0,00116615556	0,13195718834596706	-0,0049235001155146944	0,057534138064290093
1	1	0	0	0	0	2	34124,7276	0,300000012	3,92998004	0,00083383053635060787	0,3001789925270919	0,00117969746	0,28204673353163917	-0,01052354284393184	0,20762368324996198
1	1	0	0	0	0	2	35924,7276	0,300000012	4,00590658	0,00083383467662334451	0,3001804830252743	0,00120249495	0,4321357204487177	-0,016123564742597158	0,35771267016704058
1	1	0	0	0	0	2	37724,7276	0,300000012	4,1277318	0,00083384314161870208	0,30018353042359738	0,00123907707	0,58222474794221107	-0,021723588155223069	0,50780169766053363
1	0	0	1	0	0	1	39512,2228	-0,300000012	3,98253226	-0,00083290183489355776	-0,29984466000317658	0,00119414099	0,52459694103627872	-0,019573417198152301	0,10327541531557013
1	0	0	1	0	0	1	41312,2228	-0,300000012	3,86686873	-0,00083292601168983514	-0,29985336364982022	0,00115949358	0,37467234855244493	-0,013979529076822006	0,25320000779940349
1	0	0	1	0	0	1	43112,2228	-0,300000012	3,80305648	-0,00083290819562309312	-0,29984694986580506	0,00114033488	0,22474729291573267	-0,0083856236746351027	0,40312506343611578
1	1	0	0	0	0	2	44897,7810	0,300000012	3,89094877	0,00083382468552390733	0,30017688622948365	0,00116797292	0,099360195280418701	-0,003707262477115785	0,011673658268842432
1	1	0	0	0	0	2	46697,7810	0,300000012	3,94997287	0,00083382286229398515	0,30017622986671283	0,00118568796	0,24944911677116074	-0,0093072819346365235	0,16176257975958448
1	1	0	0	0	0	2	48497,7810	0,300000012	4,00464725	0,00083383210157851379	0,30017955600913696	0,00120211323	0,39953898849147648	-0,014907336846500253	0,31185245147990016
1	1	0	0	0	0	2	50297,7810	0,300000012	4,0944047	0,00083383482281863693	0,30018053565557946	0,00122906058	0,54962867194625798	-0,020507384733923776	0,46194213493468166
1	0	0	1	0	0	1	52078,4846	-0,300000012	4,02761126	-0,0008329181775715616	-0,29985054336724698	0,00120768137	0,53810196900959354	-0,020077307949539898	0,079954943105173875
1	0	0	1	0	0	1	53878,4846	-0,300000012	3,88743377	-0,00083291125730507904	-0,29984805207131795	0,00116563949	0,38817880747634189	-0,01448347321889976	0,22987810463842528
1	0	0	1	0	0	1	55678,4846	-0,300000012	3,78865337	-0,00083290799703035085	-0,29984687837241798	0,00113601587	0,23825567770336102	-0,0088896396732780288	0,37980123441140614
1	1	0	0	0	0	2	57468,3190	0,300000012	3,91798067	0,00083384343384206285	0,3001836356240071	0,00117611373	0,11918017108647211	-0,0044467724226805267	0,015008934763310685
1	1	0	0	0	0	2	59268,3190	0,300000012	3,98492169	0,00083384384604295091	0,30018378401632646	0,00119620888	0,2692710243127448	-0,010046863955851158	0,16509978798958323
1	1	0	0	0	0	2	61068,3190	0,300000012	4,05405664	0,00083386253611246746	0,3001905124413399	0,00121698936	0,41936278985029011	-0,01564698952858199	0,31519155352712845
1	1	0	0	0	0	2	62868,3190	0,300000012	4,16489363	0,0008338546400931145	0,30018766987437818	0,00125024968	0,5694548326488871	-0,021247125446295437	0,46528359632572557
1	0	0	1	0	0	1	64657,1812	-0,300000012	3,93005157	-0,00083288848130404954	-0,29983985271096256	0,00117838604	0,48360912664912384	-0,018044106734664995	0,11743278397931554
1	0	0	1	0	0	1	66457,1994	-0,300000012	3,81009579	-0,0008329153142952256	-0,29984358775903277	0,0011424328	0,33368597054264179	-0,01245027220650493	0,26735594008579744
1	0	0	1	0	0	1	68257,2350	-0,300000012	3,45261264	-0,00083292450094388595	-0,29984689489068691	0,00103525515	0,18376015905344237	-0,0068563386024454746	0,41728175157499706
1	1	0	0	0	0	2	70045,2093	0,300000012	3,976547	0,00083386690521405811	0,30018615372365747	0,00119370432	0,21651809651336323	-0,0080785812925904614	0,090890258307165581
1	1	0	0	0	0	2	71845,2449	0,300000012	4,05337	0,00083386880397796621	0,30018683726865114	0,00121676829	0,36661346938410349	-0,013678841459772906	0,24098563117790544
1	1	0	0	0	0	2	73645,2805	0,300000012	4,14905977	0,00083386850998467866	0,30018673142966451	0,00124549272	0,51670975120016851	-0,019279135540927507	0,39108191299397069
1	0	0	1	0	0	1	75426,4615	-0,300000012	3,91017342	-0,00083290688470668262	-0,29984055250130618	0,0011724286	0,47688724932571578	-0,017793304454068464	0,094114406705989722
1	0	0	1	0	0	1	77226,4970	-0,300000012	3,74441385	-0,00083291344074904909	-0,29984291299554931	0,00112273591	0,32696296848328928	-0,012199427960498082	0,24403868754841645
1	0	0	1	0	0	1	79026,5326	-0,300000012	2,96956515	-0,00083293782855404749	-0,2998516927355321	0,000890429132	0,17703822657346403	-0,0066055342638831424	0,39396342945824192
1	1	0	0	0	0	2	80808,8070	0,300000012	4,01880264	0,00083386731968820096	0,3001863018166359	0,00120638951	0,26360791664716778	-0,0098355657947192422	0,11757438075021731
1	1	0	0	0	0	2	82608,8426	0,300000012	4,11502647	0,00083385355055332186	0,30018134502255738	0,00123525423	0,41370309028233792	-0,015435818528154694	0,26766955438538714
1	0	0	1	0	0	1	84390,8372	-0,300000012	3,92850637	-0,00083290054232544371	-0,29983826884152749	0,00117791654	0,48062163976109434	-0,017932639582153776	0,040808448613020563
1	0	0	1	0	0	1	86190,8727	-0,300000012	3,68105936	-0,00083291086430019802	-0,29984198468248493	0,00110373611	0,33069820267129658	-0,012338794570128413	0,19073188570281789
1	0	0	1	0	0	1	87990,9083	-0,300000012	2,48897862	-0,0008329265986018711	-0,29984764891564128	0,000746314414	0,18077543804799894	-0,0067449746487323098	0,34065465032611552
1	1	0	0	0	0	2	89775,8843	0,300000012	4,07357264	0,00083386993625925645	0,3001872441794519	0,00122283457	0,2987905843698503	-0,011148278431052379	0,13341902520679434
1	1	0	0	0	0	2	91575,9199	0,300000012	4,17015886	0,00083386859784689216	0,30018676200058317	0,00125182653	0,44888710700853005	-0,016748581497622525	0,28351554784547443
1	0	0	1	0	0	1	93365,5340	-0,300000012	3,76396775	-0,00083290994598799283	-0,29984165494831872	0,00112859427	0,38976735024521069	-0,014542743885424723	0,10410954743278216
1	0	0	1	0	0	1	95165,5696	-0,300000012	3,14658022	-0,0008329062163432439	-0,29984031192227514	0,000943471619	0,23984257979149123	-0,0089488491237987162	0,25403431788650166
1	1	0	0	0	0	2	96951,9770	0,300000012	4,05127144	0,00083386009982228275	0,30018370383146899	0,00121612567	0,26773122562623053	-0,009989411996575959	0,088389325651826138
1	1	0	0	0	0	2	98752,0126	0,300000012	4,1792779	0,0008338396683832009	0,30017634866180698	0,00125452038	0,41782485737672128	-0,015589607200220934	0,23848295740231706
1	0	0	1	0	0	1	100535,0371	-0,300000012	3,63909006	-0,00083291444043483994	-0,29984327317900109	0,00109115662	0,3214840414074439	-0,011995001824802491	0,12243528430471542
1	1	0	0	0	0	2	102318,7939	0,300000012	3,97208285	0,0008338698856482903	0,30018722554401037	0,00119236857	0,20458408982051699	-0,007633307457437719	0,015843495384663344
1	1	0	0	0	0	2	104118,8295	0,300000012	4,14970875	0,0008338539599759712	0,30018149259351206	0,00124566571	0,3546800487042809	-0,013233589489553979	0,16593945426842736
1	0	0	1	0	0	1	105900,7579	-0,300000012	3,62495399	-0,00083290964953435802	-0,29984154737237178	0,00108691177	0,31491976565026317	-0,011750079870539456	0,094115049513975962
1	1	0	0	0	0	2	107690,7516	0,300000012	4,00863457	0,00083386279397706189	0,30018467295276563	0,0012033307	0,22250175542387603	-0,0083018396516566643	0,028351280904905664
1	1	0	0	0	0	2	109490,7872	0,300000012	4,17954493	0,00083383955233130189	0,3001763057622327	0,00125460036	0,37259643808954374	-0,013902074066359862	0,17844596357057325
1	1	0	0	0	0	2	109850,6629	0,300000012	4,1999526	0,00082290848093397094	0,30018555829618234	0,00126076513	0,40260411174840486	-0,015021700716318301	0,20845363722943424