File: Experimentelles/Rohdaten/Batterietests/AlteZelle/Studenten_Batterietests/LiCoO2 vs Li 300µm GCPL/ZView-Export/LiCoO2 vs Li 300µm GCPL_02_GCPL_C04_loop7.txt
EC-Lab ASCII FILE
Nb header lines : 3
mode	ox/red	error	control changes	Ns changes	counter inc.	Ns	time/s	control/V/mA	Ewe/V	dq/mA.h	<I>/mA	P/W	(Q-Qo)/mA.h	x	Capacity/mA.h
1	0	0	1	1	0	1	83900,83	-0,300000012	4,18333626	0	0	0	0	0	0
1	0	0	1	0	0	1	84040,83	-0,300000012	4,01687098	-0,00083292585967150003	-0,29984738342257632	0,00120444829	-0,01165668253653027	0,00043492649801430048	0,01165668253653027
1	0	0	1	0	0	1	84180,83	-0,300000012	3,97831631	-0,00083291203086243738	-0,29984240463659059	0,00119286787	-0,023317482977295357	0,00087000664057218291	0,023317482977295357
1	0	0	1	0	0	1	84320,84	-0,300000012	3,94304299	-0,00083290642060505024	-0,2998403860977664	0,00118228351	-0,034978128780332979	0,001305081013388541	0,034978128780332979
1	0	0	1	0	0	1	84460,84	-0,300000012	3,91507626	-0,00083291169726517466	-0,29984228475338291	0,00117390545	-0,046638850411235744	0,0017401582154444995	0,046638850411235744
1	0	0	1	0	0	1	84600,84	-0,300000012	3,89327121	-0,00083291613650156403	-0,29984388263746304	0,0011673735	-0,058299684341744704	0,002175239607549753	0,058299684341744704
1	0	0	1	0	0	1	84740,84	-0,300000012	3,87081766	-0,00083290941746201766	-0,29984146494451866	0,00116063165	-0,06996048448887081	0,0026103197391515706	0,06996048448887081
1	0	0	1	0	0	1	84880,85	-0,300000012	3,85036731	-0,00083290019209351795	-0,29983814276401677	0,00115448702	-0,08162116849800393	0,0030453955374887206	0,08162116849800393
1	0	0	1	0	0	1	85020,85	-0,300000012	3,83172894	-0,00083290709357294771	-0,299840627554672	0,00114890805	-0,093281925977888448	0,0034804740771183878	0,093281925977888448
1	0	0	1	0	0	1	85160,85	-0,300000012	3,81518936	-0,00083291905213561318	-0,29984493335847174	0,00114396517	-0,10494266320524554	0,0039155518610990272	0,10494266320524554
1	0	0	1	0	0	1	85300,86	-0,300000012	3,79983234	-0,00083290146888461376	-0,2998386023997264	0,00113933638	-0,11660334635975568	0,0043506276275490432	0,11660334635975568
1	0	0	1	0	0	1	85440,86	-0,300000012	3,78525758	-0,00083291471914284762	-0,29984337300925946	0,00113498443	-0,12826413494488706	0,0047857073277572928	0,12826413494488706
1	0	0	1	0	0	1	85580,86	-0,300000012	3,76787853	-0,00083291256659395162	-0,2998425986096119	0,00112977054	-0,13992484874548294	0,0052207842376539731	0,13992484874548294
1	0	0	1	0	0	1	85720,86	-0,300000012	3,75027037	-0,0008328994692315657	-0,29983788253187635	0,00112447317	-0,15158544659895805	0,0056558568214076851	0,15158544659895805
1	0	0	1	0	0	1	85860,87	-0,300000012	3,7317276	-0,00083290071044531136	-0,29983833028497786	0,00111891492	-0,16324610765508915	0,0060909317633374682	0,16324610765508915
1	0	0	1	0	0	1	86000,87	-0,300000012	3,71127725	-0,00083289026598632346	-0,29983457049366547	0,00111276924	-0,17490668897137968	0,0065260037300665894	0,17490668897137968
1	0	0	1	0	0	1	86140,87	-0,300000012	3,68853736	-0,0008329114183634519	-0,29984218414131398	0,00110597908	-0,18656731630795293	0,0069610774138743334	0,18656731630795293
1	0	0	1	0	0	1	86280,87	-0,300000012	3,66781974	-0,00083289351770612928	-0,29983574114551021	0,00109974341	-0,1982280097771743	0,007396153565180096	0,1982280097771743
1	0	0	1	0	0	1	86420,88	-0,300000012	3,6392808	-0,00083289981834755994	-0,29983800895811827	0,00109119469	-0,2098886186078895	0,0078312265585093952	0,2098886186078895
1	0	0	1	0	0	1	86560,88	-0,300000012	3,6080327	-0,00083289506035877606	-0,29983629537602387	0,00108181918	-0,2215492397537671	0,008266300011333961	0,2215492397537671
1	0	0	1	0	0	1	86700,88	-0,300000012	3,58170652	-0,00083289527753988902	-0,29983637467358048	0,00107392587	-0,23320980974098637	0,0087013715553601997	0,23320980974098637
1	0	0	1	0	0	1	86840,89	-0,300000012	3,53584552	-0,00083290625349846144	-0,29984032527345536	0,0010601891	-0,2448704269583135	0,0091364448616052672	0,2448704269583135
1	0	0	1	0	0	1	86980,89	-0,300000012	3,4904232	-0,00083290804252359603	-0,29984096886298618	0,00104657188	-0,25653111089442438	0,0095715206572178586	0,25653111089442438
1	0	0	1	0	0	1	87120,89	-0,300000012	3,43834329	-0,0008329122186518377	-0,29984247335292614	0,0010309614	-0,26819183640980317	0,010006598004208838	0,26819183640980317
1	0	0	1	0	0	1	87260,89	-0,300000012	3,35438561	-0,0008329198757956425	-0,2998452288893673	0,00100579648	-0,27985256248447226	0,010441675372067694	0,27985256248447226
1	0	0	1	0	0	1	87400,90	-0,300000012	3,25781798	-0,0008328973664293687	-0,29983712562531002	0,000976814772	-0,29151325408314586	0,010876751453580803	0,29151325408314586
1	0	0	1	0	0	1	87540,90	-0,300000012	3,15987682	-0,00083289519716799258	-0,29983634573983322	0,000947445922	-0,30317388313764922	0,011311825201486829	0,30317388313764922
1	0	0	1	0	0	1	87680,90	-0,300000012	3,03021073	-0,00083290363746550349	-0,29983938307341645	0,000908576534	-0,31483444752126195	0,011746896536434978	0,31483444752126195
1	0	0	1	0	0	1	87820,90	-0,300000012	2,8416543	-0,00083290522572894899	-0,29983995522440429	0,00085204147	-0,32649516502939424	0,012181973584664824	0,32649516502939424
1	0	0	1	0	0	1	87960,91	-0,300000012	2,56147099	-0,00083293400224712154	-0,2998503152922592	0,000768057886	-0,33815587759402989	0,012617050448446166	0,33815587759402989
1	0	0	1	0	0	1	88100,91	-0,300000012	2,20524716	-0,00083290457865761382	-0,2998397218958793	0,000661220693	-0,34981672622583744	0,013052132389076637	0,34981672622583744
1	1	0	0	0	0	2	88225,85	0,300000012	3,73110294	0,00083385858777662131	0,30018315950535072	0,00112001423	-0,35188919096489024	0,013129458834949174	0,0041693382461683616
1	1	0	0	0	0	2	88365,86	0,300000012	3,95668793	0,00083384601934585306	0,30017863384495034	0,00118771323	-0,34021514074519546	0,012693884325324907	0,015843388465863136
1	1	0	0	0	0	2	88505,86	0,300000012	3,96975565	0,00083387406047681971	0,30018872906456518	0,0011916759	-0,3285409911101072	0,012258306106378645	0,027517538100951251
1	1	0	0	0	0	2	88645,86	0,300000012	3,98164058	0,00083386953262653606	0,30018709957695264	0,00119523716	-0,31686680702145818	0,011822726601923707	0,039191722189600262
1	1	0	0	0	0	2	88785,86	0,300000012	3,99270511	0,00083386930693851571	0,30018701721260922	0,00119855825	-0,30519271738524	0,011387150621615957	0,05086581182581849
1	1	0	0	0	0	2	88925,87	0,300000012	4,00148058	0,0008338796976672279	0,30019075872009453	0,00120120752	-0,29351852569255501	0,010951570833444213	0,06254000351850359
1	1	0	0	0	0	2	89065,87	0,300000012	4,01340389	0,00083386239942080448	0,30018453160374432	0,00120476179	-0,28184433862051638	0,010515991217674997	0,074214190590542234
1	1	0	0	0	0	2	89205,87	0,300000012	4,02750158	0,00083386752376125914	0,3001863752814848	0,00120900106	-0,27017020130809078	0,010080413458503846	0,085888327902967744
1	1	0	0	0	0	2	89345,88	0,300000012	4,03923416	0,0008338628390828768	0,30018468994535878	0,00121251622	-0,25849609144513075	0,009644836723509161	0,097562437765927795
1	1	0	0	0	0	2	89485,88	0,300000012	4,05254984	0,00083387316812243725	0,30018840795219904	0,00121652847	-0,24682191997445709	0,009209257689847849	0,10923660923660131
1	1	0	0	0	0	2	89625,88	0,300000012	4,06132507	0,00083386627747284045	0,30018592662302726	0,00121915259	-0,23514763906467712	0,0087736745728663386	0,12091089014638134
1	1	0	0	0	0	2	89765,88	0,300000012	4,07315254	0,000833857959550288	0,30018293334833997	0,00122269092	-0,22347337394052336	0,0083380920448677645	0,13258515527053507
1	1	0	0	0	0	2	89905,89	0,300000012	4,08141327	0,0008338851240211063	0,30019271169711059	0,00122521049	-0,21179907910914976	0,0079025084084528768	0,14425945010190867
1	1	0	0	0	0	2	90045,89	0,300000012	4,09245872	0,00083387569619218522	0,3001893172949737	0,00122851238	-0,2001248152307248	0,0074669259269341197	0,15593371398033366
1	1	0	0	0	0	2	90185,89	0,300000012	4,10142469	0,0008338580604924096	0,30018296968678573	0,00123117783	-0,18845064921131488	0,0070313470966667878	0,16760787999974355
1	1	0	0	0	0	2	90325,90	0,300000012	4,1096468	0,00083386160590747994	0,30018424502203526	0,00123365119	-0,17677660832540781	0,0065957729352986893	0,17928192088565062
1	1	0	0	0	0	2	90465,90	0,300000012	4,11838436	0,00083388557204273011	0,30019287261477082	0,00123630965	-0,16510246404323734	0,0061601949160769869	0,19095606516782109
1	1	0	0	0	0	2	90605,90	0,300000012	4,12700701	0,00083386137990487949	0,30018416465515494	0,00123886217	-0,15342828678168614	0,0057246156663502483	0,20263024242937229
1	1	0	0	0	0	2	90745,90	0,300000012	4,13587761	0,0008338588585389984	0,30018325586312717	0,00124152121	-0,14175421230711638	0,005289040251743984	0,21430431690394205
1	1	0	0	0	0	2	90885,91	0,300000012	4,14469147	0,0008338739386383031	0,30018868497991238	0,00124418945	-0,13007994871796934	0,0048534577810185766	0,22597858049308909
1	1	0	0	0	0	2	91025,91	0,300000012	4,15304708	0,00083388177015715174	0,30019150500091622	0,00124670949	-0,11840571797278459	0,004417876535745559	0,23765281123827382
1	1	0	0	0	0	2	91165,91	0,300000012	4,15856028	0,00083388173862132762	0,3001914925299655	0,00124836445	-0,10673153917900987	0,0039822972288495002	0,24932699003204858
1	1	0	0	0	0	2	91305,91	0,300000012	4,15484047	0,00083388024411102131	0,30019095521231738	0,00124724559	-0,09505730398707689	0,003546715817662329	0,2610012252239816
1	1	0	0	0	0	2	91445,92	0,300000012	4,16319609	0,00083386077804532326	0,30018394798999635	0,00124972465	-0,083383182196063462	0,0031111386376159347	0,27267534701499501
1	1	0	0	0	0	2	91585,92	0,300000012	4,17071247	0,00083387052188648115	0,30018745458173741	0,00125199556	-0,07170911084369751	0,0026755633395032931	0,28434941836736093
1	1	0	0	0	0	2	91725,92	0,300000012	4,17784691	0,00083386561199194842	0,30018568804709421	0,00125412981	-0,060034940285561139	0,0022399843398899741	0,29602358892549734
1	1	0	0	0	0	2	91865,93	0,300000012	4,18618393	0,00083387257324324723	0,30018819402357606	0,00125664298	-0,048360787330148282	0,0018044059970579363	0,30769774188091014
1	1	0	0	0	0	2	92005,93	0,300000012	4,19423437	0,00083388664396438323	0,30019325841506758	0,00125908083	-0,036686592085332659	0,001368826076351423	0,31937193712572576
1	1	0	0	0	0	2	92115,46	0,300000012	4,2000289	0,00079454639983342758	0,30019391620699878	0,0012608231	-0,027553190696121242	0,0010280465905311734	0,32850533851493722