File: Experimentelles/Rohdaten/Batterietests/AlteZelle/150511_LLTO_LTO_Tests/ECLab-Export/LLTO_LP30_LTO_02_CV_C01_loop0.mpt
EC-Lab ASCII FILE
Nb header lines : 3
mode	ox/red	error	control changes	counter inc.	time/s	control/V	Ewe/V	<I>/mA	cycle number	(Q-Qo)/C	P/W
2	1	0	0	0	600,05	0,270491809	0,271069825	-0,0044001461938023565	1	0	1,19274682E-006
2	1	0	0	0	607,17	0,341697156	0,3420434	0,014298112029791816	1	0,000102072074	4,89057493E-006
2	1	0	1	0	614,27	0,41270259	0,412956923	0,015067848735876966	1	0,000209499325	6,22237258E-006
2	1	0	0	0	621,37	0,483708024	0,484171182	0,015460359228503251	1	0,00032070512	7,48546017E-006
2	1	0	0	0	628,47	0,554713368	0,555405438	0,016200906335143427	1	0,000436818547	8,99807128E-006
2	1	0	1	0	635,57	0,625718832	0,626028299	0,017030497974095283	1	0,000559187669	1,06615735E-005
2	1	0	0	0	642,67	0,696724236	0,697262585	0,018225069783511517	1	0,000688852742	1,27076592E-005
2	1	0	1	0	649,77	0,767730176	0,767985284	0,01971152095578385	1	0,000826566014	1,51381582E-005
2	1	0	1	0	656,88	0,838735044	0,839069545	0,020667264747316893	1	0,000972749433	1,73412718E-005
2	1	0	1	0	663,94	0,909340441	0,909632206	0,021789745650797443	1	0,00112647959	1,98206544E-005
2	1	0	0	0	671,04	0,980345964	0,980565846	0,023223853029776282	1	0,001289865	2,27725177E-005
2	1	0	0	0	678,14	1,05135131	1,05193043	0,024590689097143014	1	0,00146280765	2,58676937E-005
2	1	0	1	0	685,24	1,12235665	1,12283397	0,025962822061652867	1	0,0016461151	2,91519391E-005
2	1	0	0	0	692,34	1,19336212	1,19378746	0,028022747428622042	1	0,00184064789	3,34532051E-005
2	1	0	1	0	699,44	1,2643677	1,26491153	0,029174641987386394	1	0,00204593339	3,69033405E-005
2	1	0	1	0	706,54	1,33537304	1,33566463	0,030688553253033382	1	0,00226218463	4,09896165E-005
2	1	0	0	0	713,64	1,40637839	1,40672863	0,032175342600870291	1	0,00249007437	4,52619752E-005
2	1	0	1	0	720,74	1,47738385	1,47747183	0,033952812625405728	1	0,00272980658	5,01643226E-005
2	1	0	1	0	727,84	1,5483892	1,54898667	0,035730806538291968	1	0,00298143458	5,53465434E-005
2	1	0	0	0	734,94	1,61939442	1,61976993	0,037423967170373882	1	0,00324450573	6,06182184E-005
2	1	0	1	0	742,04	1,6904	1,69070339	0,03888816519368743	1	0,00351910922	6,57483542E-005
2	1	0	0	0	749,14	1,76140547	1,7621181	0,040772464271867674	1	0,00380516401	7,18458978E-005
2	1	0	0	0	756,24	1,83241081	1,83300161	0,04242950800107792	1	0,00410368433	7,77733585E-005
2	1	0	1	0	763,34	1,90341616	1,90390515	0,044516644372682214	1	0,00441630231	8,47554693E-005
2	1	0	0	0	770,44	1,97442174	1,97492886	0,047171714608945427	1	0,00474499492	9,31607792E-005
2	1	0	0	0	777,54	2,04542708	2,04590249	0,049817095355440986	1	0,00509219849	0,000101920923
2	1	0	1	0	784,65	2,11643243	2,1167357	0,053092621208634285	1	0,00546110654	0,000112383044
2	1	0	0	0	791,75	2,18743801	2,18789983	0,056586040824186054	1	0,005855144	0,000123804595
2	1	0	1	0	798,85	2,25844336	2,25901413	0,060899904385830042	1	0,00627715467	0,000137573748
2	1	0	1	0	805,95	2,3294487	2,33001781	0,065531955352829184	1	0,00672912272	0,000152690627
2	1	0	0	0	813,05	2,40045428	2,40091133	0,070285609030785626	1	0,00721360184	0,00016874951
2	1	0	1	0	820,15	2,47145963	2,47190499	0,075838529582445862	1	0,00773561792	0,000187465645
2	1	0	1	0	827,25	2,54246449	2,54300833	0,083069642771008038	1	0,00830224529	0,000211246792
2	1	0	0	0	834,35	2,61347032	2,61391258	0,091526034113485594	1	0,00892427564	0,000239241053
2	1	0	1	0	841,49	2,68487573	2,68537736	0,10242433341530477	1	0,00961931888	0,000275047991
2	1	0	0	0	848,59	2,75588155	2,75651145	0,11448233295232058	1	0,0103924936	0,000315571873
2	1	0	0	0	855,69	2,82688689	2,82722449	0,12859737613083166	1	0,0112592801	0,000363573665
2	1	0	1	0	862,79	2,89789224	2,89810801	0,1410733457887545	1	0,0122261876	0,000408845779
2	1	0	0	0	869,89	2,96889758	2,9692018	0,15497190326762621	1	0,0132760005	0,000460142852
2	1	0	1	0	876,99	3,03990293	3,04030585	0,17622807773485715	1	0,0144545287	0,000535787258
2	1	0	1	0	884,09	3,11090851	3,11130953	0,20264977434029286	1	0,0157995541	0,000630506198
2	1	0	0	0	891,19	3,18191385	3,18245387	0,2352982114534825	1	0,0173564665	0,000748825725
2	1	0	1	0	898,29	3,25291896	3,25335693	0,27404553458715242	1	0,0191647839	0,000891567965
2	1	0	1	0	905,39	3,32392454	3,32430077	0,3232656726613632	1	0,0212821979	0,00107463228
2	1	0	0	0	912,50	3,39492989	3,39541459	0,38634792777399251	1	0,0237969998	0,00131181139
2	1	0	1	0	919,60	3,46593499	3,46639848	0,4670847935291623	1	0,0268187691	0,00161910197
2	1	0	1	0	926,70	3,53694034	3,53740168	0,56785470160106221	1	0,0304839034	0,00200873008
2	1	0	0	0	933,80	3,60794616	3,60841584	0,69342809977630989	1	0,0349562541	0,00250217691
2	1	0	1	0	940,90	3,67895174	3,67942953	0,83442314465840538	1	0,0403707065	0,00307020126
2	1	0	0	0	948,04	3,75035739	3,75098491	1,026696822916465	1	0,0469832458	0,00385112432
2	1	0	0	0	955,14	3,8213625	3,82213926	1,2874448591222406	1	0,055156406	0,0049207937
2	1	0	1	0	962,24	3,89236808	3,89301252	1,6376602730403328	1	0,0654941872	0,00637543201
2	1	0	0	0	969,34	3,96337342	3,96368527	2,0191116450975251	1	0,0785082579	0,0080031231
2	1	0	1	0	976,44	4,03437901	4,03500938	2,2810158164550813	1	0,0938763544	0,00920392014
2	1	0	1	0	983,54	4,10538435	4,10605335	2,426267315944031	1	0,110635415	0,00996238273
2	1	0	0	0	990,64	4,17638969	4,17683649	2,5334694149593472	1	0,128246337	0,0105818873
2	0	0	1	1	997,68	4,15318775	4,15368032	1,7263997476547885	1	0,144154906	0,00717091281
2	0	0	0	1	1004,78	4,08218241	4,08277512	0,95746247216911232	1	0,153417006	0,00390910404
2	0	0	0	1	1011,88	4,01117706	4,01156235	0,51918644427011174	1	0,158514068	0,0020827488
2	0	0	1	1	1019,02	3,93977165	3,94030833	0,2562434977541368	1	0,161202133	0,00100967835
2	0	0	0	1	1026,12	3,86876607	3,86920404	0,085091826738789683	1	0,162370235	0,000329237635
2	0	0	1	1	1033,35	3,79656053	3,79703736	-0,022989784038897344	1	0,162551895	8,72930686E-005
2	0	0	1	1	1040,45	3,72555494	3,72618389	-0,078753518716742746	1	0,16216588	0,000293450081
2	0	0	0	1	1047,59	3,65414977	3,65470886	-0,11074927208634744	1	0,161477044	0,000404756342
2	0	0	1	1	1054,69	3,58314419	3,58360505	-0,13198154109219784	1	0,16060783	0,000472969725
2	0	0	1	1	1061,79	3,51213884	3,51251125	-0,14691491409515322	1	0,159612238	0,000516040309
2	0	0	0	1	1068,89	3,4411335	3,44152784	-0,15870021112884138	1	0,158521593	0,000546171214
2	0	0	1	1	1075,99	3,37012815	3,3705337	-0,17005366591426307	1	0,157349691	0,000573171594
2	0	0	0	1	1083,09	3,29912257	3,29932928	-0,1804604384815319	1	0,156100586	0,000595398422
2	0	0	0	1	1090,19	3,22811747	3,22863674	-0,19082863372750669	1	0,154778555	0,000616116333
2	0	0	1	1	1097,29	3,15711188	3,15746236	-0,19928721392837722	1	0,15338926	0,000629241869
2	0	0	0	1	1104,39	3,08610654	3,08662939	-0,20722996552164342	1	0,151940852	0,000639642123
2	0	0	0	1	1111,49	3,01510048	3,01555395	-0,21282636627740192	1	0,150445133	0,000641789404
2	0	0	1	1	1118,59	2,94409561	2,94432092	-0,21643119173434931	1	0,148917496	0,000637242862
2	0	0	0	1	1125,69	2,87309027	2,87358809	-0,21706404117867373	1	0,147375166	0,000623752654
2	0	0	1	1	1132,79	2,80208492	2,80234361	-0,21433659448909293	1	0,145838484	0,000600644795
2	0	0	1	1	1139,89	2,73107934	2,73135972	-0,20797538020027238	1	0,14433369	0,000568055548
2	0	0	0	1	1146,99	2,66007423	2,66062665	-0,1989406230859463	1	0,142883182	0,000529306708
2	0	0	1	1	1154,09	2,58906865	2,58957291	-0,18838979501742893	1	0,141503096	0,000487849116
2	0	0	1	1	1161,19	2,51806307	2,51841879	-0,17648935290829555	1	0,140203521	0,000444474106
2	0	0	0	1	1168,30	2,44705772	2,4476254	-0,16522579907905222	1	0,13898778	0,00040441085
2	0	0	1	1	1175,40	2,37605214	2,37659192	-0,15492752233209674	1	0,137848675	0,000368199486
2	0	0	0	1	1182,50	2,3050468	2,30546761	-0,14787454907006339	1	0,136772633	0,000340919971
2	0	0	0	1	1189,60	2,23404145	2,23453403	-0,14425049962786397	1	0,135735467	0,000322332664
2	0	0	1	1	1196,70	2,16303611	2,16348004	-0,14545503538102022	1	0,134705767	0,000314689067
2	0	0	0	1	1203,80	2,09203076	2,09247637	-0,15142063579211574	1	0,133651316	0,000316844089
2	0	0	0	1	1210,90	2,02102447	2,02128196	-0,16122068126922294	1	0,132541209	0,000325872446
2	0	0	1	1	1218,00	1,95001972	1,95046914	-0,17379841410244467	1	0,131349981	0,000338988437
2	0	0	0	1	1225,10	1,87901437	1,87940514	-0,18645429560759379	1	0,130066484	0,000350423157
2	0	0	1	1	1232,20	1,80800903	1,80841136	-0,19878811327119683	1	0,128694296	0,000359490688
2	0	0	1	1	1239,30	1,73700356	1,73740768	-0,21228844587070262	1	0,127232462	0,000368831563
2	0	0	0	1	1246,40	1,66599798	1,66635394	-0,22686238097958355	1	0,125669569	0,00037803303
2	0	0	1	1	1253,50	1,59499264	1,59546041	-0,23917667707428349	1	0,124009468	0,00038159691
2	0	0	1	1	1260,60	1,52398717	1,52442575	-0,24936015998095184	1	0,122270308	0,000380131038
2	0	0	0	1	1267,70	1,45298195	1,45334256	-0,25720404779228189	1	0,120467447	0,000373805582
2	0	0	1	1	1274,80	1,38197649	1,3822087	-0,2629972312133768	1	0,118615545	0,000363517058
2	0	0	0	1	1281,90	1,31097114	1,31128502	-0,26508120439636419	1	0,116736084	0,000347597001
2	0	0	0	1	1289,00	1,23996568	1,24056208	-0,26306340307928598	1	0,114855044	0,00032634649
2	0	0	1	1	1296,11	1,16896021	1,16914713	-0,2596228116502367	1	0,112997353	0,000303537265
2	0	0	0	1	1303,21	1,09795475	1,09837401	-0,26099164279488195	1	0,111146957	0,000286666444
2	0	0	0	1	1310,31	1,02694964	1,02731085	-0,26538582943033971	1	0,109274864	0,000272633741
2	0	0	1	1	1317,41	0,955944002	0,956537008	-0,27600517201547658	1	0,107354447	0,00026400917
2	0	0	0	1	1324,51	0,884938657	0,885362923	-0,29297968411507693	1	0,105333783	0,00025939336
2	0	0	1	1	1331,61	0,813933134	0,814228773	-0,31310859733882125	1	0,103177324	0,000254942017
2	0	0	1	1	1338,71	0,74292779	0,743285239	-0,33122742439930611	1	0,100886375	0,000246196461
2	0	0	0	1	1345,81	0,671922326	0,672080994	-0,34807521190183987	1	0,0984702408	0,000233934741
2	0	0	1	1	1352,91	0,600916982	0,601217568	-0,36480875747899245	1	0,0959349349	0,000219329435
2	0	0	0	1	1360,01	0,529911458	0,530334115	-0,37861913054560634	1	0,0932904258	0,000200794646
2	0	0	0	1	1367,11	0,458906114	0,459200084	-0,38497114709268179	1	0,0905703679	0,000176778776
2	0	0	1	1	1374,21	0,38790071	0,388336688	-0,39381557594363859	1	0,0878113136	0,000152933033
2	0	0	0	1	1381,31	0,316895276	0,317212641	-0,4156416887417431	1	0,0849446654	0,000131846798
2	0	0	0	1	1385,94	0,270591825	0,270588636	-0,45434749440142982	1	0,082944192	0,000122941274