File: Experimentelles/Rohdaten/Batterietests/AlteZelle/150511_LLTO_LTO_Tests/ECLab-Export/LLTO_LP30_LTO_02_CV_C01_loop8.mpt
EC-Lab ASCII FILE
Nb header lines : 3
mode	ox/red	error	control changes	counter inc.	time/s	control/V	Ewe/V	<I>/mA	cycle number	(Q-Qo)/C	P/W
2	1	0	1	0	6887,29	0,273292035	0,273605406	-0,69924926757812506	9	0	0,000191318381
2	1	0	0	0	6894,37	0,344097376	0,344579041	-0,072532038107359526	9	-0,00182846258	2,49930199E-005
2	1	0	1	0	6901,59	0,41630289	0,416575223	0,012564680645785571	9	-0,00195906102	5,23413473E-006
2	1	0	0	0	6908,69	0,487308323	0,487619072	0,034924499554714784	9	-0,00177746627	1,70298517E-005
2	1	0	0	0	6915,79	0,558313787	0,558652878	0,049940517288632691	9	-0,00147155242	2,78994139E-005
2	1	0	1	0	6922,89	0,629319191	0,629857123	0,06420919760906441	9	-0,0010642932	4,0442621E-005
2	1	0	0	0	6929,99	0,700324655	0,700550139	0,079385906748939277	9	-0,000551034871	5,56138075E-005
2	1	0	1	0	6937,10	0,771330059	0,771644056	0,090277083198694989	9	5,76151579E-005	6,96617717E-005
2	1	0	1	0	6944,20	0,842335522	0,842938542	0,095003820296066406	9	0,000721217424	8,00823836E-005
2	1	0	0	0	6951,25	0,912840843	0,913220525	0,095831708963184051	9	0,0013986557	8,75154801E-005
2	1	0	1	0	6958,35	0,983846247	0,984284461	0,095152397834074918	9	0,00207932317	9,36570286E-005
2	1	0	1	0	6965,45	1,05485153	1,05553865	0,09705571213271447	9	0,00276405807	0,000102446058
2	1	0	0	0	6972,59	1,12625694	1,12682319	0,099293556258392307	9	0,00346793607	0,000111886278
2	1	0	1	0	6979,69	1,19726253	1,19786692	0,10164824372623115	9	0,00418423209	0,00012176107
2	1	0	0	0	6986,79	1,26826799	1,26883078	0,10388498210037778	9	0,00491843931	0,000131812456
2	1	0	0	0	6993,89	1,33927333	1,33970416	0,10450444587816765	9	0,00566322543	0,000140005039
2	1	0	1	0	7000,99	1,41027868	1,41079807	0,10301478525313245	9	0,00640372885	0,000145333062
2	1	0	0	0	7008,09	1,48128426	1,48190212	0,1015213523448133	9	0,00713226153	0,000150444714
2	1	0	0	0	7015,19	1,55228913	1,55271482	0,10368447374792034	9	0,00786024053	0,000160992422
2	1	0	1	0	7022,29	1,62329495	1,62374914	0,11048848441957214	9	0,00862148404	0,000179405586
2	1	0	0	0	7029,39	1,69430029	1,6948632	0,11981906493504811	9	0,00944087934	0,000203076925
2	1	0	1	0	7036,49	1,76530588	1,76581681	0,12910525143767382	9	0,0103282686	0,000227976227
2	1	0	1	0	7043,59	1,83631134	1,83686066	0,13918086537159957	9	0,0112858498	0,000255655847
2	1	0	0	0	7050,69	1,90731668	1,90800476	0,14893882434504624	9	0,012312741	0,000284176
2	1	0	1	0	7057,79	1,97832227	1,97882819	0,15819456094565475	9	0,0134067284	0,000313039869
2	1	0	0	0	7064,90	2,04932737	2,0499804	0,16670027223830509	9	0,0145639041	0,000341732288
2	1	0	0	0	7072,00	2,12033296	2,12068534	0,17476627804959709	9	0,0157797057	0,000370624271
2	1	0	1	0	7079,10	2,1913383	2,19181943	0,18191556970123158	9	0,0170502588	0,000398726086
2	1	0	0	0	7086,20	2,26234388	2,26281309	0,18886068882420659	9	0,0183698423	0,000427356426
2	1	0	0	0	7093,30	2,33334947	2,33396602	0,19544674150188566	9	0,0197360367	0,000456166046
2	1	0	1	0	7100,40	2,40435481	2,40489054	0,20287468587048442	9	0,0211536344	0,000487891404
2	1	0	0	0	7107,50	2,47536039	2,47592449	0,21079821349121542	9	0,0226257816	0,000521920447
2	1	0	1	0	7114,60	2,5463655	2,5470283	0,21859932931450432	9	0,0241547469	0,000556778687
2	1	0	1	0	7121,70	2,61737108	2,61794209	0,22740424734850694	9	0,0257420018	0,000595331134
2	1	0	0	0	7128,80	2,68837643	2,68903589	0,23591763464113091	9	0,0273903813	0,000634390977
2	1	0	1	0	7135,90	2,75938177	2,76000977	0,24468440213240595	9	0,0291006062	0,000675331336
2	1	0	0	0	7143,00	2,83038759	2,8309536	0,25642066588248502	9	0,0308797136	0,000725915015
2	1	0	0	0	7150,10	2,90139294	2,90204692	0,27238299449284842	9	0,0327576771	0,000790468242
2	1	0	1	0	7157,20	2,97239804	2,97299075	0,29322791611775802	9	0,0347654484	0,000871763856
2	1	0	0	0	7164,30	3,04340363	3,04414487	0,32041536721711418	9	0,036944218	0,00097539078
2	1	0	0	0	7171,40	3,11440897	3,11488819	0,3527708666709559	9	0,0393329971	0,00109884178
2	1	0	1	0	7178,50	3,18541408	3,18610215	0,39212615694850682	9	0,0419780761	0,00124935398
2	1	0	0	0	7185,60	3,2564199	3,25717616	0,4395117438398295	9	0,0449284725	0,00143156713
2	1	0	0	0	7192,71	3,32742476	3,32816935	0,49853445997515424	9	0,0482537635	0,00165920716
2	1	0	1	0	7199,81	3,39843059	3,39924383	0,5754558977981401	9	0,0520606786	0,00195611501
2	1	0	0	0	7206,91	3,46943617	3,47017741	0,66389504742498138	9	0,0564583987	0,00230383361
2	1	0	1	0	7214,01	3,54044127	3,54116106	0,76353592829157696	9	0,0615230687	0,00270380359
2	1	0	1	0	7221,11	3,61144686	3,61217475	0,8692652185757943	9	0,0673265532	0,00313993776
2	1	0	0	0	7228,21	3,68245244	3,68308854	0,96002025405565926	9	0,0738346279	0,0035358395
2	1	0	1	0	7235,35	3,75385761	3,75468373	1,0401205637802704	9	0,0809808671	0,0039053238
2	1	0	0	0	7242,45	3,8248632	3,82558727	1,1151399556547368	9	0,0886354744	0,00426606508
2	1	0	0	0	7249,55	3,89586854	3,8968215	1,1902501452714267	9	0,0968214348	0,00463819224
2	1	0	1	0	7256,65	3,96687412	3,96766472	1,2737234514206648	9	0,105565742	0,0050537074
2	1	0	0	0	7263,75	4,03787947	4,0386982	1,3722980376332963	9	0,114955567	0,00554229738
2	1	0	0	0	7270,85	4,10888386	4,10978937	1,4863017523829248	9	0,125096053	0,00610838737
2	1	0	1	0	7277,95	4,17989016	4,18074608	1,6438406283656662	9	0,136171117	0,00687248027
2	0	0	0	1	7284,99	4,14968777	4,15059233	1,0068041253834928	9	0,146123171	0,00417883368
2	0	0	1	1	7292,13	4,07828236	4,07918739	0,49006247272094106	9	0,151257128	0,00199905667
2	0	0	1	1	7299,23	4,00727749	4,00796366	0,22710905435744787	9	0,153696746	0,000910244824
2	0	0	0	1	7306,33	3,93627167	3,93678904	0,088232454863221171	9	0,154763907	0,000347352558
2	0	0	1	1	7313,47	3,86486602	3,86569524	0,007854507248945687	9	0,155080006	3,03631314E-005
2	0	0	0	1	7320,66	3,79306078	3,79356885	-0,042726658789130624	9	0,154941604	0,000162086522
2	0	0	0	1	7327,76	3,7220552	3,72275543	-0,077794787881430234	9	0,154504001	0,000289610965
2	0	0	1	1	7334,90	3,65064979	3,65133047	-0,10628089510525296	9	0,153839558	0,000388066663
2	0	0	0	1	7342,00	3,57964444	3,58021665	-0,12955920363310702	9	0,152997464	0,00046385001
2	0	0	1	1	7349,10	3,50863886	3,50929308	-0,14969545214747405	9	0,152000219	0,000525325187
2	0	0	1	1	7356,20	3,43763375	3,43831921	-0,1652507875502729	9	0,150876448	0,000568184943
2	0	0	0	1	7363,30	3,36662817	3,36738586	-0,1778096462755152	9	0,149653822	0,000598753686
2	0	0	1	1	7370,40	3,29562259	3,29626203	-0,18879793941353773	9	0,148348376	0,000622327498
2	0	0	1	1	7377,50	3,22461724	3,22532797	-0,19902944122441158	9	0,146968916	0,000641935214
2	0	0	0	1	7384,60	3,15361166	3,15431452	-0,20916295493952973	9	0,145517036	0,000659765734
2	0	0	1	1	7391,70	3,08260655	3,08312035	-0,22036281577311456	9	0,143988296	0,000679405057
2	0	0	0	1	7398,80	3,01160121	3,01205635	-0,23261103934297856	9	0,142376065	0,000700637582
2	0	0	0	1	7405,90	2,94059563	2,94103265	-0,24450755491852694	9	0,140677705	0,000719104719
2	0	0	1	1	7413,00	2,86959052	2,8700788	-0,25470801567037958	9	0,138900816	0,000731032051
2	0	0	0	1	7420,10	2,79858494	2,79939604	-0,26080476663385978	9	0,137064323	0,000730095839
2	0	0	0	1	7427,20	2,72757936	2,72822189	-0,26280265774888288	9	0,13519986	0,000716983981
2	0	0	1	1	7434,30	2,65657401	2,65714788	-0,26131146339078714	9	0,133336276	0,00069434318
2	0	0	0	1	7441,40	2,58556843	2,58622408	-0,25995493028313011	9	0,131482542	0,000672301685
2	0	0	1	1	7448,51	2,51456308	2,51518059	-0,25956803009224493	9	0,129635662	0,000652860443
2	0	0	1	1	7455,61	2,44355774	2,4440465	-0,25971632318881798	9	0,127790183	0,000634758791
2	0	0	0	1	7462,71	2,37255216	2,37306261	-0,25984701731552784	9	0,125942484	0,000616633217
2	0	0	1	1	7469,81	2,30154705	2,30198884	-0,25917947424265242	9	0,124095403	0,000596628233
2	0	0	1	1	7476,91	2,23054147	2,23149633	-0,25794320468169917	9	0,122255303	0,000575599319
2	0	0	0	1	7484,01	2,15953588	2,15996122	-0,25505316831792512	9	0,120430529	0,000550904952
2	0	0	1	1	7491,11	2,08853054	2,08928823	-0,25070721019680298	9	0,118631169	0,000523799623
2	0	0	0	1	7498,21	2,0175252	2,0183146	-0,24698566847170422	9	0,116860539	0,000498494774
2	0	0	0	1	7505,31	1,94651985	1,9469099	-0,24472614385498125	9	0,115112208	0,00047645974
2	0	0	1	1	7512,41	1,87551427	1,8759563	-0,24240553022051814	9	0,113380186	0,00045474217
2	0	0	0	1	7519,51	1,80450892	1,80497253	-0,24009727376202682	9	0,111663423	0,000433368987
2	0	0	0	1	7526,61	1,73350346	1,73396873	-0,23745208419184614	9	0,109965496	0,00041173448
2	0	0	1	1	7533,71	1,66249812	1,66302526	-0,2359774171685185	9	0,108283304	0,000392436399
2	0	0	0	1	7540,81	1,59149253	1,5920316	-0,23708259073706995	9	0,106602989	0,000377442979
2	0	0	1	1	7547,91	1,52048719	1,52108788	-0,24016954990414253	9	0,104906172	0,000365318992
2	0	0	1	1	7555,01	1,44948184	1,44988382	-0,24567178551418099	9	0,103177197	0,000356195553
2	0	0	0	1	7562,11	1,37847638	1,37888992	-0,2518058432421344	9	0,1014072	0,000347212539
2	0	0	1	1	7569,21	1,30747092	1,30795646	-0,25694107000405619	9	0,0995972306	0,000336067722
2	0	0	1	1	7576,31	1,23646557	1,23699272	-0,26057876076252384	9	0,097756438	0,000322334032
2	0	0	0	1	7583,42	1,16546011	1,16591883	-0,26501791939760323	9	0,0958879292	0,000308989373
2	0	0	1	1	7590,52	1,09445465	1,09494519	-0,27156748327736934	9	0,0939810798	0,000297351507
2	0	0	0	1	7597,62	1,02344918	1,02374089	-0,2844227358388407	9	0,0920088142	0,00029117518
2	0	0	0	1	7604,72	0,952443898	0,952807307	-0,30583285416166016	9	0,0899168923	0,000291399774
2	0	0	1	1	7611,82	0,881438375	0,881893814	-0,33539959827127622	9	0,0876392648	0,000295786827
2	0	0	0	1	7618,92	0,81043303	0,810910165	-0,36319202200199258	9	0,0851526558	0,000294516096
2	0	0	0	1	7626,02	0,739427805	0,739816785	-0,38516201769124781	9	0,0824876353	0,000284949318
2	0	0	1	1	7633,12	0,668422222	0,668692172	-0,40306587688004128	9	0,0796832591	0,000269526994
2	0	0	0	1	7640,22	0,597416699	0,597708404	-0,42307884463419578	9	0,0767505467	0,00025287777
2	0	0	1	1	7647,32	0,526411355	0,526534259	-0,45165755723913568	9	0,073647365	0,000237813176
2	0	0	1	1	7654,42	0,455405861	0,45586133	-0,49021734514584115	9	0,0703056902	0,000223471128
2	0	0	0	1	7661,52	0,384400457	0,384847581	-0,53975652003039974	9	0,066655241	0,000207723991
2	0	0	1	1	7668,62	0,313395023	0,313583165	-0,61398428166285069	9	0,0625758544	0,000192535139
2	0	0	0	1	7672,69	0,272691995	0,273364812	-0,67673620084921638	9	0,0599525757	0,000184995864