File: Experimentelles/Rohdaten/Batterietests/AlteZelle/150511_LLTO_LTO_Tests/ECLab-Export/LLTO_LP30_LTO_05_GCPL_C01_loop2.mpt
EC-Lab ASCII FILE
Nb header lines : 3
mode	ox/red	error	control changes	Ns changes	counter inc.	Ns	time/s	control/V/mA	Ewe/V	dq/mA.h	<I>/mA	P/W	(Q-Qo)/mA.h	x	Capacity/mA.h
1	0	0	1	1	0	1	87085,37	-0,0100000007	2,81095362	0	0	0	0	0	0
1	0	0	1	0	0	1	87755,38	-0,0100000007	1,98584342	-2,7757117257815683E-005	-0,009992364747874601	1,98432717E-005	-0,0018596194759537562	6,938490293281184E-005	0,0018596194759537562
1	0	0	1	0	0	1	88425,39	-0,0100000007	1,51786554	-2,7756954163054211E-005	-0,009992306009445897	1,51669774E-005	-0,003719307392772503	0,00013877235948631621	0,003719307392772503
1	0	0	1	0	0	1	89095,41	-0,0100000007	1,10780239	-2,7756669527747565E-005	-0,009992203531012119	1,10693873E-005	-0,005579005795903305	0,00020816020729822234	0,005579005795903305
1	1	0	0	0	0	2	89747,93	0,0100000007	1,3711338	2,7796641978279997E-005	0,010006593345559544	1,37203788E-005	-0,0058902824409388928	0,00021977435744040048	0,00075048497860826957
1	1	0	0	0	0	2	90417,94	0,0100000007	1,97596502	2,7795486434776746E-005	0,010006177341345965	1,97718564E-005	-0,0040279743151410765	0,00015028913736697862	0,0026127931044060842
1	1	0	0	0	0	2	91087,96	0,0100000007	2,33088851	2,779512206045911E-005	0,010006046206575446	2,33229784E-005	-0,0021656661364485914	8,0803915319985498E-005	0,0044751012830985696
1	1	0	0	0	0	2	91757,97	0,0100000007	2,52178025	2,7795657915373645E-005	0,010006239097020259	2,52335358E-005	-0,00030335066740433037	1,1318421260165678E-005	0,0063374167521428301
1	1	0	0	0	0	2	92427,98	0,0100000007	2,62344146	2,7795484668730448E-005	0,010006176705596424	2,62506182E-005	0,0015589203243801904	-5,8165413293292941E-005	0,0081996877439273459
1	1	0	0	0	0	2	93098,00	0,0100000007	2,68011522	2,7795470742560509E-005	0,010006171729651419	2,68176937E-005	0,003421196790028871	-0,00012764945208398304	0,010061964209576029
1	1	0	0	0	0	2	93768,01	0,0100000007	2,71165991	2,779542579341473E-005	0,010006155542221502	2,71332901E-005	0,0052834843710024947	-0,00019713390560239149	0,01192425179054965
1	1	0	0	0	0	2	94438,02	0,0100000007	2,73018217	2,7795044172917386E-005	0,010006018130252573	2,73182523E-005	0,0071457810299041498	-0,00026661869783050019	0,013786548449451302
1	1	0	0	0	0	2	95108,04	0,0100000007	2,74217367	2,7794437662180925E-005	0,010005799824220272	2,74376416E-005	0,0090080312739874048	-0,00033610175825932902	0,015648798693534554
1	1	0	0	0	0	2	95778,05	0,0100000007	2,7497735	2,7794296397620605E-005	0,010005748973827371	2,75135426E-005	0,010870229869837571	-0,00040558289162313946	0,01751099728938472
1	1	0	0	0	0	2	96448,06	0,0100000007	2,75534916	2,7793731910538758E-005	0,010005545725104379	2,75687726E-005	0,012732440598075494	-0,00047506447766264934	0,01937320801762265
1	1	0	0	0	0	2	97118,08	0,0100000007	2,75981736	2,779380871096833E-005	0,010005573398803613	2,76135561E-005	0,014594638796674822	-0,00054454559620449702	0,021235406216221971
1	1	0	0	0	0	2	97788,09	0,0100000007	2,76283431	2,7793379294427322E-005	0,010005418823202085	2,76433148E-005	0,016456827367213405	-0,00061402635551045299	0,023097594786760563
1	1	0	0	0	0	2	98458,10	0,0100000007	2,76480126	2,7794448581524192E-005	0,010005803721559755	2,76640585E-005	0,018319005089603686	-0,00068350671005741056	0,024959772509150842
1	1	0	0	0	0	2	99128,12	0,0100000007	2,76749349	2,7794224121970019E-005	0,010005722936354109	2,76907722E-005	0,020181210477174214	-0,00075298809682943936	0,02682197789672137
1	1	0	0	0	0	2	99798,13	0,0100000007	2,76932669	2,779419358700721E-005	0,010005711962970904	2,77090858E-005	0,022043414746288842	-0,00082246944187037453	0,028684182165835997
1	1	0	0	0	0	2	100468,14	0,0100000007	2,77178979	2,779410802795448E-005	0,010005681124814304	2,77336439E-005	0,023905624640473632	-0,00089195099679024064	0,030546392060020787
1	1	0	0	0	0	2	101138,16	0,0100000007	2,77381396	2,7794300816642742E-005	0,010005750538916392	2,77540912E-005	0,025767809038272902	-0,00096143160040568269	0,03240857645782007
1	1	0	0	0	0	2	101808,17	0,0100000007	2,77534151	2,7794759803399859E-005	0,010005915796611222	2,77698327E-005	0,02763000853675335	-0,0010309127674478426	0,034270775956300506
1	1	0	0	0	0	2	102478,18	0,0100000007	2,77677369	2,7794180018361661E-005	0,010005707040848648	2,77835843E-005	0,029492224331152051	-0,0011003945425126227	0,036132991750699219
1	1	0	0	0	0	2	103148,20	0,0100000007	2,77786207	2,7794461691545114E-005	0,010005808445733232	2,77947565E-005	0,031354405308374157	-0,0011698750185017315	0,037995172727921312
1	1	0	0	0	0	2	103818,21	0,0100000007	2,77853036	2,7794013619785094E-005	0,010005647175701798	2,78009938E-005	0,033216601302990944	-0,0012393560548100275	0,039857368722538106
1	1	0	0	0	0	2	104488,22	0,0100000007	2,77835846	2,7794700113849507E-005	0,010005894275483981	2,77999607E-005	0,035078815379297114	-0,001308837765770465	0,041719582798844275
1	1	0	0	0	0	2	105158,24	0,0100000007	2,777843	2,7794720890155683E-005	0,010005901750729515	2,77948238E-005	0,036941034916465958	-0,0013783196804830314	0,043581802336013114
1	1	0	0	0	0	2	105828,25	0,0100000007	2,77772832	2,7794190618209539E-005	0,010005710893875427	2,77931467E-005	0,038803267436648006	-0,0014478020796092758	0,045444034856195162
1	1	0	0	0	0	2	106498,26	0,0100000007	2,77673554	2,7794815363310691E-005	0,010005935771691872	2,77838371E-005	0,040665481758858016	-0,0015172837997447165	0,047306249178405171
1	1	0	0	0	0	2	107168,28	0,0100000007	2,77791929	2,7795293054698656E-005	0,010006107725893822	2,7796159E-005	0,04252772276320279	-0,00158676651542648	0,049168490182749952
1	1	0	0	0	0	2	107838,29	0,0100000007	2,77853036	2,7794561357237395E-005	0,010005844357288006	2,78015432E-005	0,044389987336454483	-0,0016562501104958486	0,051030754756001638
1	1	0	0	0	0	2	108508,30	0,0100000007	2,7788167	2,7794965783651504E-005	0,010005989929399226	2,78048119E-005	0,04625222974074041	-0,0017257328784112986	0,052892997160287571
1	1	0	0	0	0	2	109178,32	0,0100000007	2,77893138	2,7794261050565789E-005	0,010005736211865562	2,78052539E-005	0,048114458757655597	-0,0017952151468259466	0,054755226177202758
1	1	0	0	0	0	2	109848,33	0,0100000007	2,77883601	2,779493252663977E-005	0,010005977975646909	2,7804972E-005	0,04997668686246759	-0,0018646973812087981	0,056617454282014752
1	1	0	0	0	0	2	110518,34	0,0100000007	2,77862597	2,7794478620505997E-005	0,010005814561587626	2,78024163E-005	0,051838945118485818	-0,0019341807405736928	0,058479712538032973
1	1	0	0	0	0	2	111188,36	0,0100000007	2,77874041	2,779463989308311E-005	0,010005872592476194	2,78037223E-005	0,053701209958746144	-0,002003664345605513	0,060341977378293299
1	1	0	0	0	0	2	111858,37	0,0100000007	2,77879763	2,7795117861384323E-005	0,010006044694880154	2,78047737E-005	0,055563480943044352	-0,002073148179879647	0,062204248362591514
1	1	0	0	0	0	2	112528,38	0,0100000007	2,77877855	2,7795015510119914E-005	0,010006007844435536	2,78044809E-005	0,057425758160104365	-0,0021426322467065043	0,06406652557965152
1	1	0	0	0	0	2	113198,39	0,0100000007	2,77895045	2,7795291034142589E-005	0,010006106998624502	2,78064763E-005	0,059288036820102157	-0,0022121163673713101	0,065928804239649293
1	1	0	0	0	0	2	113868,41	0,0100000007	2,77906513	2,7795166556257757E-005	0,010006062218572784	2,78074986E-005	0,061150299891213888	-0,0022815999063938173	0,067791067310760986
1	1	0	0	0	0	2	114538,42	0,0100000007	2,77895045	2,7794916151608858E-005	0,010005972080737715	2,78060998E-005	0,063012618367390387	-0,0023510855126537843	0,069653385786937408
1	1	0	0	0	0	2	115208,43	0,0100000007	2,77914143	2,7795000622462893E-005	0,010006002452486197	2,78080952E-005	0,064874890874482163	-0,0024205694037453936	0,071515658294029171
1	1	0	0	0	0	2	115878,45	0,0100000007	2,77919865	2,7795793141083174E-005	0,010006287778245514	2,78094612E-005	0,066737158947373709	-0,002490053129391031	0,07337792636692073
1	1	0	0	0	0	2	116548,46	0,0100000007	2,77946615	2,7795678660066595E-005	0,010006246578372554	2,78120242E-005	0,068599455878440077	-0,0025595379317739712	0,075240223297987085
1	1	0	0	0	0	2	117218,47	0,0100000007	2,77961874	2,7795202219186147E-005	0,010006075025872131	2,78130738E-005	0,070461748766501888	-0,0026290225833069757	0,077102516186048909
1	1	0	0	0	0	2	117888,49	0,0100000007	2,77984786	2,7795377664578458E-005	0,010006138202204707	2,78155421E-005	0,072324048710742144	-0,0026985074981154845	0,078964816130289165
1	1	0	0	0	0	2	118558,50	0,0100000007	2,77975249	2,7796228978731152E-005	0,010006444689191371	2,78154403E-005	0,074186359887827251	-0,0027679928320365376	0,080827127307374259
1	1	0	0	0	0	2	119228,51	0,0100000007	2,77958059	2,7795647148819021E-005	0,010006235197257643	2,78131374E-005	0,076048656427986675	-0,0028374776198342141	0,082689423847533696
1	1	0	0	0	0	2	119898,53	0,0100000007	2,77959967	2,7795730758872298E-005	0,010006265306183214	2,78134121E-005	0,077910982011313549	-0,0029069634912715168	0,08455174943086057
1	1	0	0	0	0	2	120568,54	0,0100000007	2,7796762	2,7796488640467738E-005	0,010006538165540181	2,78149364E-005	0,079773309437212301	-0,0029764494314576538	0,086414076856759309
1	1	0	0	0	0	2	121238,55	0,0100000007	2,77963781	2,7796336909807805E-005	0,010006483506305701	2,78143998E-005	0,08163566593447031	-0,0030459364563352922	0,088276433354017331
1	1	0	0	0	0	2	121908,57	0,0100000007	2,77977157	2,7796550987391837E-005	0,010006560575624946	2,78159532E-005	0,083498041085255168	-0,0031154241772010963	0,090138808504802189
1	1	0	0	0	0	2	122578,58	0,0100000007	2,77977157	2,7796733885072173E-005	0,01000662645196959	2,78161351E-005	0,08536038541558176	-0,0031849107481141645	0,092001152835128768
1	1	0	0	0	0	2	123248,59	0,0100000007	2,77979064	2,779636470026647E-005	0,010006493516730488	2,78159569E-005	0,087222732967956595	-0,0032543974392461843	0,093863500387503616
1	1	0	0	0	0	2	123918,61	0,0100000007	2,77961874	2,7795892092606259E-005	0,010006323375394672	2,78137632E-005	0,089085082426585498	-0,0033238842015031066	0,095725849846132518
1	1	0	0	0	0	2	124588,62	0,0100000007	2,77843499	2,7795680897051677E-005	0,010006247383773194	2,78017087E-005	0,090947421344253056	-0,0033933705704625888	0,097588188763800077
1	1	0	0	0	0	2	125258,63	0,0100000007	2,77824402	2,7796391765793994E-005	0,01000650326665119	2,78005082E-005	0,092809773672183386	-0,0034628574397770054	0,099450541091730406
1	1	0	0	0	0	2	125477,92	0,0100000007	2,77799582	2,5794513225193238E-005	0,010006278933205558	2,77974013E-005	0,093419281492540237	-0,0034855989960464998	0,10006004891208726