File: Experimentelles/Rohdaten/Batterietests/AlteZelle/150511_LLTO_LTO_Tests/ECLab-Export/LLTO_LP30_LTO_05_GCPL_C01_loop1.mpt
EC-Lab ASCII FILE
Nb header lines : 3
mode	ox/red	error	control changes	Ns changes	counter inc.	Ns	time/s	control/V/mA	Ewe/V	dq/mA.h	<I>/mA	P/W	(Q-Qo)/mA.h	x	Capacity/mA.h
1	0	0	1	1	0	1	48843,55	-0,0100000007	2,8181715	0	0	0	0	0	0
1	0	0	1	0	0	1	49513,55	-0,0100000007	1,97398555	-2,775510005735689E-005	-0,0099918360020372352	1,97237405E-005	-0,0018595639947953584	6,9382832856196813E-005	0,0018595639947953584
1	0	0	1	0	0	1	50183,55	-0,0100000007	1,47329795	-2,7755551084462141E-005	-0,0099919983717948224	1,47211904E-005	-0,0037191986849710739	0,00013876830345208566	0,0037191986849710739
1	0	0	1	0	0	1	50853,55	-0,0100000007	1,04404449	-2,7755046542371728E-005	-0,0099918167366426125	1,04319015E-005	-0,0055788113913649555	0,00020815295380351683	0,0055788113913649555
1	1	0	0	0	0	2	51505,32	0,0100000007	1,547418	2,7795900539184611E-005	0,010006524175467856	1,54842764E-005	-0,0050546708888692134	0,0001885965669410001	0,0011674483387622878
1	1	0	0	0	0	2	52175,32	0,0100000007	2,10869384	2,7795837067067626E-005	0,010006501325505782	2,11006482E-005	-0,003192311134232896	0,00011910942052619802	0,0030298080933986022
1	1	0	0	0	0	2	52845,32	0,0100000007	2,42580938	2,7797039756499645E-005	0,010006934293700506	2,42749156E-005	-0,0013299443568436382	4,9622012083041555E-005	0,0048921748707878592
1	1	0	0	0	0	2	53515,32	0,0100000007	2,58972001	2,779647347387961E-005	0,010006730431957672	2,59146309E-005	0,0005324348550139143	-1,9865860306845302E-005	0,0067545540826454144
1	1	0	0	0	0	2	54185,32	0,0100000007	2,67478776	2,779706178450336E-005	0,010006942223781827	2,67664473E-005	0,0023948276192894976	-8,9354238355670323E-005	0,008616946846921001
1	1	0	0	0	0	2	54855,32	0,0100000007	2,71925974	2,7796960884084304E-005	0,010006905899631035	2,72113757E-005	0,0042572325574872973	-0,00015884307062990125	0,010479351785118795
1	1	0	0	0	0	2	55525,32	0,0100000007	2,74394941	2,7796362149632643E-005	0,010006690355228838	2,74578524E-005	0,0061196311326569498	-0,00022833166549099677	0,012341750360288451
1	1	0	0	0	0	2	56195,32	0,0100000007	2,7590344	2,7797525924837424E-005	0,010007109314301779	2,76099581E-005	0,0079820429861818586	-0,0002978207557853799	0,014204162213813363
1	1	0	0	0	0	2	56865,32	0,0100000007	2,76862001	2,7797379792460963E-005	0,010007056706646352	2,7705737E-005	0,0098444529820345229	-0,00036730977676751392	0,016066572209666029
1	1	0	0	0	0	2	57535,32	0,0100000007	2,77536058	2,7797515965687731E-005	0,010007105729007896	2,7773327E-005	0,011706865532433187	-0,00043679889306319386	0,017928984760064688
1	1	0	0	0	0	2	58205,32	0,0100000007	2,78022981	2,7797406589457146E-005	0,010007066353564958	2,7821945E-005	0,013569286752899733	-0,00050628833285076339	0,019791405980531213
1	1	0	0	0	0	2	58875,32	0,0100000007	2,78378153	2,7797642353715171E-005	0,010007151228697688	2,78577227E-005	0,01543170054547104	-0,00057577749549357472	0,021653819773102525
1	1	0	0	0	0	2	59545,32	0,0100000007	2,78637838	2,7797166108981603E-005	0,010006979780593925	2,78832322E-005	0,01729408778232407	-0,00064526566730683251	0,023516207009955552
1	1	0	0	0	0	2	60215,32	0,0100000007	2,78849792	2,7797010329500256E-005	0,010006923699980746	2,79042852E-005	0,019156482103877216	-0,00071475410345977715	0,025378601331508698
1	1	0	0	0	0	2	60885,32	0,0100000007	2,79010201	2,779702537511993E-005	0,010006929116403818	2,79203523E-005	0,021018859152489117	-0,00078424189513606029	0,027240978380120598
1	1	0	0	0	0	2	61555,32	0,0100000007	2,79140043	2,779719074624073E-005	0,010006988650007194	2,79335127E-005	0,022881237579508246	-0,00085372973824257037	0,029103356807139725
1	1	0	0	0	0	2	62225,32	0,0100000007	2,79233599	2,7795102510446061E-005	0,010006236885122514	2,79407759E-005	0,024743573256796771	-0,00092321598629915405	0,030965692484428256
1	1	0	0	0	0	2	62895,32	0,0100000007	2,7931571	2,7795793066732586E-005	0,0100064854853852	2,79496853E-005	0,026605911374083587	-0,00099270232539535437	0,032828030601715091
1	1	0	0	0	0	2	63565,32	0,0100000007	2,79399729	2,7796427811754662E-005	0,01000671399359272	2,79587312E-005	0,028468250400788272	-0,0010621886984231582	0,03469036962841975
1	1	0	0	0	0	2	64235,32	0,0100000007	2,79493284	2,7796693413052707E-005	0,01000680961005984	2,79683609E-005	0,030330623321399162	-0,0011316763360781734	0,036552742549030624
1	1	0	0	0	0	2	64905,32	0,0100000007	2,79617405	2,7795921648852528E-005	0,010006531774948291	2,79800042E-005	0,032193014820620429	-0,0012011646669261213	0,03841513404825191
1	1	0	0	0	0	2	65575,32	0,0100000007	2,79726243	2,7797523563520778E-005	0,010006910698441098	2,7991955E-005	0,034055386452487347	-0,0012706522564963661	0,040277505680118829
1	1	0	0	0	0	2	66245,34	0,0100000007	2,7982173	2,7797370651167712E-005	0,010006855683146646	2,80013574E-005	0,035917796966565952	-0,0013401412968142067	0,042139916194197434
1	1	0	0	0	0	2	66915,35	0,0100000007	2,79892373	2,7797364080117808E-005	0,010006853283570405	2,80084187E-005	0,037780186425001568	-0,0014096295515176978	0,04400230565263305
1	1	0	0	0	0	2	67585,36	0,0100000007	2,79976392	2,7796436339409814E-005	0,010006519300371434	2,80158911E-005	0,03964259622034103	-0,0014791185650184147	0,045864715447972512
1	1	0	0	0	0	2	68255,38	0,0100000007	2,80052781	2,7798315874300899E-005	0,010007195956779373	2,80254299E-005	0,041505029045862579	-0,0015486084378061894	0,047727148273494061
1	1	0	0	0	0	2	68925,39	0,0100000007	2,80131054	2,779973797660528E-005	0,010007707876871197	2,80346976E-005	0,043367579622124179	-0,0016181027040323933	0,049589698849755661
1	1	0	0	0	0	2	69595,40	0,0100000007	2,80215073	2,7798807733226566E-005	0,010007372985272131	2,80421682E-005	0,045230098102270285	-0,0016875957727093741	0,051452217329901766
1	1	0	0	0	0	2	70265,42	0,0100000007	2,80236077	2,7798640843636045E-005	0,010007312943369936	2,80441018E-005	0,047092648668698144	-0,0017570900385686678	0,053314767896329626
1	1	0	0	0	0	2	70935,43	0,0100000007	2,80262804	2,7800087545118813E-005	0,010007833726155651	2,80482345E-005	0,048955223979876147	-0,0018265852276878589	0,055177343207507629
1	1	0	0	0	0	2	71605,44	0,0100000007	2,80293369	2,7799409923919789E-005	0,010007589769636885	2,80506101E-005	0,050817797278081798	-0,0018960803417003453	0,05703991650571328
1	1	0	0	0	0	2	72275,46	0,0100000007	2,80322003	2,7797626210531843E-005	0,010006947682787046	2,80516761E-005	0,052680327297223642	-0,0019655738409127718	0,058902446524855117
1	1	0	0	0	0	2	72945,47	0,0100000007	2,80064225	2,7799332846266528E-005	0,010007562047292435	2,80276017E-005	0,054542827442461011	-0,0020350662254896563	0,060764946670092493
1	1	0	0	0	0	2	73615,48	0,0100000007	2,80123425	2,779920402655585E-005	0,010007515648050901	2,80333952E-005	0,056405389526206086	-0,0021045609210755402	0,062627508753837555
1	1	0	0	0	0	2	74285,50	0,0100000007	2,80203629	2,7798724810903274E-005	0,01000734317110529	2,80409386E-005	0,058267912378119846	-0,0021740541528690502	0,064490031605751309
1	1	0	0	0	0	2	74955,51	0,0100000007	2,80281901	2,7798299368574387E-005	0,010007190009651146	2,80483418E-005	0,060130449256603469	-0,0022435479080127408	0,066352568484234982
1	1	0	0	0	0	2	75625,52	0,0100000007	2,80364013	2,7799375615600086E-005	0,010007577418769406	2,8057646E-005	0,061992966781955046	-0,0023130409410650547	0,068215086009586573
1	1	0	0	0	0	2	76295,54	0,0100000007	2,80442309	2,7799453007833414E-005	0,010007605311693661	2,80655586E-005	0,063855520314622272	-0,002382535317598727	0,070077639542253786
1	1	0	0	0	0	2	76965,55	0,0100000007	2,80537772	2,779940756596625E-005	0,010007588957954323	2,80750664E-005	0,065718096186211712	-0,0024520305276276227	0,071940215413843226
1	1	0	0	0	0	2	77635,56	0,0100000007	2,80627537	2,780046234988711E-005	0,010007968635380218	2,80851164E-005	0,06758067752682976	-0,0025215259417133286	0,073802796754461274
1	1	0	0	0	0	2	78305,57	0,0100000007	2,80700088	2,7799062792315251E-005	0,010007464829893202	2,80909626E-005	0,069443272367767104	-0,0025910218595140989	0,075665391595398618
1	1	0	0	0	0	2	78975,59	0,0100000007	2,80765009	2,7800020005398739E-005	0,010007809431793107	2,80984277E-005	0,071305861709887846	-0,0026605175721466282	0,077527980937519347
1	1	0	0	0	0	2	79645,60	0,0100000007	2,80841398	2,779920512323992E-005	0,010007516042732864	2,81052471E-005	0,07316843033701431	-0,0027300125118748698	0,079390549564645824
1	1	0	0	0	0	2	80315,61	0,0100000007	2,80908227	2,779949802801841E-005	0,010007621504193758	2,8112232E-005	0,075031035544089293	-0,0027995088164501728	0,081253154771720806
1	1	0	0	0	0	2	80985,63	0,0100000007	2,80997968	2,7799874678926746E-005	0,010007757115413552	2,81215944E-005	0,076893629784405555	-0,0028690047118409629	0,083115749012037069
1	1	0	0	0	0	2	81655,64	0,0100000007	2,81070518	2,7799684992473987E-005	0,010007688792257243	2,8128663E-005	0,078756228009094963	-0,0029385007558940717	0,084978347236726464
1	1	0	0	0	0	2	82325,65	0,0100000007	2,81141186	2,779958762958025E-005	0,010007653753128403	2,8135637E-005	0,080618809169640602	-0,0030079961632610349	0,086840928397272115
1	1	0	0	0	0	2	82995,67	0,0100000007	2,81198478	2,779969435919904E-005	0,010007692201594376	2,81414777E-005	0,082481383709660979	-0,0030774913236072973	0,08870350293729248
1	1	0	0	0	0	2	83665,68	0,0100000007	2,81194639	2,7799670012564294E-005	0,010007683399640029	2,81410685E-005	0,084343941720079872	-0,0031469858672119059	0,090566060947711386
1	1	0	0	0	0	2	84335,69	0,0100000007	2,81232834	2,7797761244337181E-005	0,010006996259863454	2,81429584E-005	0,086206463010647462	-0,0032164790407494912	0,092428582238278976
1	1	0	0	0	0	2	85005,71	0,0100000007	2,81225204	2,7797727249769702E-005	0,010006984055960891	2,81421617E-005	0,088068894435140339	-0,0032859688612630022	0,09429101366277184
1	1	0	0	0	0	2	85675,72	0,0100000007	2,81192732	2,7796632724710637E-005	0,010006590002691437	2,81378034E-005	0,089931291908051507	-0,0033554574149973517	0,096153411135683021
1	1	0	0	0	0	2	86345,73	0,0100000007	2,81188917	2,7796855812116214E-005	0,010006670307444547	2,81376488E-005	0,09179367882981737	-0,0034249455750542835	0,098015798057448883
1	1	0	0	0	0	2	87015,75	0,0100000007	2,81190825	2,779673387762159E-005	0,010006626449287434	2,81377161E-005	0,09365606579283753	-0,0034944337366504691	0,099878185020469043
1	1	0	0	0	0	2	87085,32	0,0100000007	2,81183195	2,6598825440276416E-005	0,010006666602507485	2,81370649E-005	0,093849444432808794	-0,0035016489537081434	0,1000715636604403