File: Experimentelles/Ausgewaehlte_Daten/LiS/PEIS/LiS_Klein_Vollprogramm_07_PEIS_C01.mpt
EC-Lab ASCII FILE
Nb header lines : 68

Potentio Electrochemical Impedance Spectroscopy

Run on channel : 1 (SN 6985)
Grouped channel(s) : 1
User :
CE vs. WE compliance from -10 V to 10 V
Electrode connection : standard
Ewe ctrl range : min = 0,00 V, max = 5,00 V
Acquisition started on : 08/28/2015 15:57:10
Saved on :
	File : LiS_Klein_Vollprogramm_07_PEIS_C01.mpr
	Directory : C:\Gielisch\NeueZelle\LiS-Test\150828\
	Host : 192.168.0.2
Device : VMP3 (SN 0324)
Address : 192.168.0.1
EC-Lab for windows v10.33 (software)
Internet server v10.33 (firmware)
Command interpretor v10.32 (firmware)
Electrode material :
Initial state :
Electrolyte :
Comments :
Mass of active material : 0,001 mg
 at x = 0,000
Molecular weight of active material (at x = 0) : 0,001 g/mol
Atomic weight of intercalated ion : 0,001 g/mol
Acquisition started at : xo = 0,000
Number of e- transfered per intercalated ion : 1
for DX = 1, DQ = 26,801 mA.h
Battery capacity : 0,000 A.h
Electrode surface area : 0,001 cm²
Characteristic mass : 0,001 g
Multi Sine          0
E (V)               0,0000
vs.                 Eoc
tE (h:m:s)          0:00:0,0000
record              0
dI                  0,000
unit dI             mA
dt (s)              0,000
fi                  1,000
unit fi             MHz
ff                  1,000
unit ff             Hz
Sel Nd              1
Nd                  6
Nt                  51
Log                 1
Va (mV)             10,0
pw                  0,10
Na                  2
E range min (V)     0,000
E range max (V)     5,000
I Range             Auto
Bandwidth           5
corr                0
nc cycles           0
goto Ns'            0
nr cycles           0
inc. cycle          0

Number of loops : 1
Loop 0 from point number 0 to 36

freq/Hz	Re(Z)/Ohm	-Im(Z)/Ohm	|Z|/Ohm	Phase(Z)/deg	time/s	<Ewe>/V	<I>/mA	Cs/µF	Cp/µF	cycle number	I Range	|Ewe|/V	|I|/A	Re(Y)/Ohm-1	Im(Y)/Ohm-1	|Y|/Ohm-1	Phase(Y)/deg
1000024,25	112,794472	19,2716637	114,42897	-9,69573212	499143,3982	1,68847358	-0,00931091513	0,00825829525	0,000234237727	1	11	0,00206489721	1,80452316E-005	0,00861421786	0,00147179479	0,00873904582	9,69573212
681286,5	114,62722	23,5053673	117,012398	-11,5883827	499144,6302	1,68952417	-0,00631768629	0,00993855577	0,000401045458	1	11	0,00753682898	6,44105166E-005	0,0083718989	0,00171673519	0,00854610279	11,5883827
464160,125	119,098999	24,3598232	121,564682	-11,559515	499144,9442	1,68976343	-0,00624573976	0,0140759656	0,000565212336	1	11	0,0108222375	8,9024521E-005	0,00805922505	0,00164838752	0,00822607335	11,559515
316223,094	124,861023	25,8003788	127,498764	-11,6748753	499145,3602	1,68983197	-0,00638776831	0,0195074491	0,00079880486	1	11	0,010181698	7,98572291E-005	0,00768094976	0,00158713595	0,00784321316	11,6748753
215441,859	131,016571	27,3330956	133,837357	-11,7842054	499145,6742	1,68986201	-0,00651991833	0,0270272102	0,00112726016	1	11	0,0108338194	8,09476478E-005	0,00731427874	0,00152592827	0,00747175561	11,7842054
146777,328	137,158981	29,1077938	140,213593	-11,981514	499145,9882	1,68988276	-0,00658813724	0,0372521952	0,00160542573	1	11	0,0107379416	7,65827426E-005	0,00697660353	0,0014805703	0,00713197608	11,981514
100024,406	143,066772	30,7940063	146,343338	-12,1471434	499146,3022	1,69017422	-0,00496431394	0,0516711324	0,00228788634	1	11	0,0107622426	7,35410504E-005	0,0066802525	0,0014378723	0,00683324598	12,1471434
68127,4297	149,603394	33,9020691	153,396622	-12,7683163	499146,6162	1,6898998	-0,00670500379	0,0689083636	0,00336583448	1	11	0,0105000576	6,8450383E-005	0,00635784352	0,00144076988	0,00651904847	12,7683163
46411,125	155,975479	38,1199951	160,566132	-13,7337236	499146,9302	1,68991745	-0,00675905636	0,0899591297	0,00507040927	1	11	0,010393668	6,47313864E-005	0,00604990311	0,00147858053	0,0062279636	13,7337236
31628,4121	163,068558	43,9532471	168,88826	-15,0849237	499147,2442	1,68991113	-0,0068964255	0,114485845	0,00775416056	1	11	0,0103005115	6,09900962E-005	0,00571704097	0,00154096237	0,00592107465	15,0849237
21545,4082	171,051346	51,8357277	178,733063	-16,8590069	499147,5582	1,689906	-0,00696669472	0,142507002	0,0119862901	1	11	0,0101341847	5,67001116E-005	0,0053544729	0,00162262958	0,00559493573	16,8590069
14672,8496	180,431152	62,6028404	190,983032	-19,1348553	499147,7702	1,68990767	-0,00698197866	0,173265308	0,0186170191	1	11	0,0107435398	5,62538953E-005	0,00494677294	0,00171634462	0,00523606734	19,1348553
10015,2705	191,714447	76,5341873	206,426529	-21,7623444	499148,0225	1,68993986	-0,00688971626	0,207635671	0,028541835	1	11	0,0109994421	5,32850208E-005	0,00449908106	0,00179607503	0,00484433863	21,7623444
6856,00244	204,963852	93,7337723	225,380127	-24,5754967	499148,5388	1,68994045	-0,00710891001	0,247658402	0,0428365022	1	11	0,0100776097	4,47138336E-005	0,00403502304	0,00184529088	0,00443694834	24,5754967
4642,42725	219,650543	118,064629	249,370438	-28,2585278	499148,9901	1,68994236	-0,00722605595	0,290372342	0,0650885925	1	11	0,0094454363	3,78771292E-005	0,00353217614	0,00189858419	0,00401009852	28,2585278
3160,05566	236,66774	150,473862	280,453217	-32,448288	499149,4411	1,68994439	-0,00729352888	0,334706634	0,0963530838	1	11	0,00976535771	3,48199173E-005	0,00300897262	0,00191311131	0,00356565719	32,448288
2152,93286	258,582611	195,952744	324,441742	-37,154686	499149,8926	1,68994272	-0,00739119714	0,377257854	0,137615561	1	11	0,00989731494	3,05056765E-005	0,00245655142	0,00186156365	0,00308221742	37,154686
1468,58972	289,509613	260,007599	389,126923	-41,9269028	499150,5886	1,68994224	-0,00784043875	0,416805685	0,186090052	1	12	0,0103379609	2,6567066E-005	0,00191196718	0,00171713124	0,00256985566	41,9269028
999,040405	334,252777	345,277344	480,563599	-45,9294739	499151,0396	1,68993998	-0,00792559423	0,461390913	0,238178983	1	12	0,010202013	2,12292671E-005	0,0014473492	0,0014950867	0,00208089012	45,9294739
681,089661	403,188293	456,096649	608,756897	-48,5233994	499151,4901	1,68994224	-0,00797734316	0,512340844	0,287597388	1	12	0,0101095466	1,66068694E-005	0,00108797802	0,0012307479	0,0016426919	48,5233994
464,553894	508,261932	592,922729	780,953003	-49,3963394	499151,9416	1,68994308	-0,00803946983	0,577811182	0,333067566	1	12	0,0100437356	1,28608708E-005	0,000833369908	0,000972183654	0,00128048682	49,3963394
316,315765	667,58429	748,65094	1003,06879	-48,2760925	499152,3906	1,68994117	-0,00809301715	0,672078371	0,374383956	1	12	0,0100076497	9,97703228E-006	0,000663505693	0,000744077144	0,000996940653	48,2760925
215,344498	898,255188	905,979614	1275,79834	-45,2452965	499152,8411	1,6899395	-0,00815142691	0,815770328	0,411377639	1	12	0,00999489613	7,83422911E-006	0,000551868579	0,00055661425	0,000783822907	45,2452965
146,737289	1195,20813	1026,31836	1575,3894	-40,6524963	499153,2880	1,68993938	-0,00822952017	1,05681157	0,448524207	1	12	0,00998442154	6,33774835E-006	0,000481579162	0,000413529255	0,000634763681	40,6524963
99,9040375	1545,01318	1078,79004	1884,37097	-34,9242859	499153,7396	1,68994498	-0,00826396141	1,47672677	0,483995378	1	12	0,00997875445	5,29553608E-006	0,000435110327	0,000303811423	0,000530681049	34,9242859
68,1888962	1891,80078	1049,27905	2163,30688	-29,0147495	499154,4527	1,68994582	-0,00829381961	2,22441316	0,523312628	1	13	0,00999846682	4,6218438E-006	0,000404239865	0,000224209871	0,000462255266	29,0147495
46,3802681	2204,74121	943,30542	2398,06348	-23,1638126	499154,8914	1,6899457	-0,00834103674	3,63776398	0,562882602	1	13	0,00998460781	4,16361263E-006	0,00038338601	0,000164032899	0,000417003146	23,1638126
31,5869217	2449,46777	797,068176	2575,89014	-18,0251293	499155,3213	1,68994963	-0,00838101748	6,32145977	0,605276287	1	13	0,00997553114	3,87265391E-006	0,000369162066	0,000120127057	0,000388215325	18,0251293
21,5220375	2626,75098	646,859131	2705,22583	-13,8342924	499155,7432	1,6899507	-0,00842271745	11,432128	0,653641224	1	13	0,009979886	3,68911378E-006	0,00035893172	8,83899047E-005	0,00036965491	13,8342924
14,6851501	2750,27515	512,219116	2797,56714	-10,5500574	499156,2037	1,68994772	-0,00846307352	21,1585541	0,70931071	1	13	0,00997584313	3,56589931E-006	0,000351410825	6,54477553E-005	0,000357453449	10,5500574
9,9904108	2831,06567	398,719879	2859,00513	-8,01666164	499156,6545	1,68995333	-0,00849874411	39,954792	0,777096212	1	13	0,00997425709	3,48871617E-006	0,000346353889	4,87795769E-005	0,000349772017	8,01666164
6,81718969	2892,84766	316,348328	2910,09351	-6,24080086	499156,9940	1,68994594	-0,00853289943	73,7987823	0,872100234	1	13	0,00997385755	3,42733233E-006	0,000341595151	3,73552502E-005	0,000343631575	6,24080086
4,63925123	2930,52295	260,29126	2942,05981	-5,07573462	499157,4789	1,68994629	-0,00856358744	131,799164	1,0316416	1	13	0,00997077487	3,38904556E-006	0,000338565034	3,00716019E-005	0,000339897902	5,07573462
3,16039586	2955,32666	217,040817	2963,28564	-4,20029306	499158,1728	1,68995273	-0,00861545932	232,026291	1,24472392	1	13	0,00997357257	3,36571406E-006	0,00033655687	2,4716921E-005	0,000337463251	4,20029306
2,1522038	2982,94458	188,433441	2988,89038	-3,61458731	499159,1781	1,68994701	-0,00868739188	392,444946	1,55982089	1	13	0,00997775607	3,33828098E-006	0,000333906763	2,10929829E-005	0,000334572338	3,61458731
1,46630979	3018,15161	174,112076	3023,16968	-3,30163741	499160,6397	1,68994904	-0,00877638534	623,398193	2,06775117	1	13	0,00997272041	3,29876298E-006	0,00033022961	1,90503888E-005	0,000330778654	3,30163741
0,998529792	3065,12769	180,538742	3070,43994	-3,37087774	499162,7722	1,68994987	-0,00888390653	882,853638	3,05230761	1	13	0,00997254066	3,24791904E-006	0,000325122761	1,91500185E-005	0,00032568624	3,37087774