File: Experimentelles/Ausgewaehlte_Daten/LiS/PEIS/LiS_NMR_07_PEIS_C01.mpt
EC-Lab ASCII FILE
Nb header lines : 68

Potentio Electrochemical Impedance Spectroscopy

Run on channel : 1 (SN 6985)
Grouped channel(s) : 1
User :
CE vs. WE compliance from -10 V to 10 V
Electrode connection : standard
Ewe ctrl range : min = 0,00 V, max = 5,00 V
Acquisition started on : 09.17.2015 16:13:32
Saved on :
	File : LiS_NMR_07_PEIS_C01.mpr
	Directory : C:\Gielisch\NeueZelle\LiS-Test\150917\
	Host : 192.168.0.2
Device : VMP3 (SN 0324)
Address : 192.168.0.1
EC-Lab for windows v10.33 (software)
Internet server v10.33 (firmware)
Command interpretor v10.32 (firmware)
Electrode material :
Initial state :
Electrolyte :
Comments :
Mass of active material : 0,001 mg
 at x = 0,000
Molecular weight of active material (at x = 0) : 0,001 g/mol
Atomic weight of intercalated ion : 0,001 g/mol
Acquisition started at : xo = 0,000
Number of e- transfered per intercalated ion : 1
for DX = 1, DQ = 26,801 mA.h
Battery capacity : 0,000 A.h
Electrode surface area : 0,001 cm²
Characteristic mass : 0,001 g
Multi Sine          0
E (V)               0,0000
vs.                 Eoc
tE (h:m:s)          0:00:0,0000
record              0
dI                  0,000
unit dI             mA
dt (s)              0,000
fi                  1,000
unit fi             MHz
ff                  1,000
unit ff             Hz
Sel Nd              1
Nd                  6
Nt                  51
Log                 1
Va (mV)             10,0
pw                  0,10
Na                  2
E range min (V)     0,000
E range max (V)     5,000
I Range             Auto
Bandwidth           5
corr                0
nc cycles           0
goto Ns'            0
nr cycles           0
inc. cycle          0

Number of loops : 1
Loop 0 from point number 0 to 36

freq/Hz	Re(Z)/Ohm	-Im(Z)/Ohm	|Z|/Ohm	Phase(Z)/deg	time/s	<Ewe>/V	<I>/mA	Cs/µF	Cp/µF	cycle number	I Range	|Ewe|/V	|I|/A	Re(Y)/Ohm-1	Im(Y)/Ohm-1	|Y|/Ohm-1	Phase(Y)/deg
1000024,25	115,425247	31,8281994	119,733131	-15,416049	108481,0988	1,68707311	-0,0101422118	0,005000317	0,000353340147	1	11	0,00200659386	1,6758886E-005	0,00805141404	0,00222015544	0,00835190713	15,416049
681286,5	123,169823	32,2249527	127,315567	-14,6616735	108482,3308	1,68683231	-0,0146272965	0,00724933296	0,000464429293	1	11	0,00827157032	6,4969041E-005	0,00759873493	0,00198805891	0,00785449892	14,6616735
464160,125	127,864777	37,1256828	133,145477	-16,1907139	108482,7468	1,68708205	-0,0145352203	0,00923587102	0,000718081836	1	11	0,0100755906	7,56735462E-005	0,00721270405	0,00209421664	0,00751058199	16,1907139
316223,094	135,487991	43,9637451	142,442291	-17,9774399	108483,1628	1,68716359	-0,0146153672	0,0114480592	0,00109054439	1	11	0,0100759491	7,07370637E-005	0,00667763827	0,00216678972	0,00702038687	17,9774399
215441,859	144,774933	52,7498589	154,085464	-20,019598	108483,4768	1,68720365	-0,0147298109	0,0140045369	0,00164130016	1	11	0,0108612683	7,0488597E-005	0,00609775586	0,00222176407	0,0064899046	20,019598
146777,328	156,139114	63,039669	168,38475	-21,98592	108483,7908	1,68721116	-0,0148284109	0,0172007438	0,00241084653	1	11	0,010791257	6,40869039E-005	0,00550688757	0,0022233529	0,00593878003	21,98592
100024,406	169,271271	73,4136658	184,50563	-23,4465828	108484,1048	1,68742275	-0,0143402573	0,0216739085	0,00343140378	1	11	0,0107469251	5,82471403E-005	0,0049723764	0,00215654075	0,005419889	23,4465828
68127,4297	187,704147	89,1885834	207,815903	-25,4149685	108484,4188	1,68721938	-0,0149823697	0,0261932202	0,00482447259	1	11	0,0105658397	5,08423072E-005	0,00434626639	0,00206515053	0,00481195142	25,4149685
46411,125	209,296616	104,865486	234,097931	-26,6125946	108484,7328	1,68724334	-0,0150079047	0,0327013358	0,0065619885	1	11	0,0103728734	4,43099743E-005	0,00381915271	0,00191353937	0,00427171635	26,6125946
31628,4121	235,335846	122,604012	265,357697	-27,5183716	108485,0468	1,68724	-0,0151344631	0,0410429053	0,0087616127	1	11	0,0102551365	3,86464635E-005	0,00334214047	0,00174117053	0,00376849808	27,5183716
21545,4082	266,703705	141,594772	301,960175	-27,9641323	108485,3608	1,68722975	-0,0151437819	0,0521696769	0,0114713171	1	11	0,0100398166	3,32488089E-005	0,002925026	0,0015529159	0,00331169507	27,9641323
14672,8496	304,780853	160,002991	344,227142	-27,6984482	108485,5728	1,6872319	-0,0152386548	0,0677918643	0,0146468263	1	11	0,0103735756	3,01358432E-005	0,00257215672	0,00135032367	0,00290505844	27,6984482
10015,2705	349,737122	177,086487	392,014893	-26,8549957	108485,8251	1,68726361	-0,0152209485	0,0897370949	0,0183120817	1	11	0,0104774926	2,67272826E-005	0,00227581314	0,00115233904	0,0025509235	26,8549957
6856,00244	400,03952	191,571381	443,543915	-25,5888824	108486,3705	1,68725598	-0,0159230847	0,121176526	0,0226051044	1	12	0,0109519837	2,46919935E-005	0,00203343201	0,000973772258	0,00225456827	25,5888824
4642,42725	455,545013	199,849762	497,454712	-23,6872883	108486,8216	1,68725419	-0,0159762502	0,171542361	0,0276867244	1	12	0,010196263	2,04968674E-005	0,00184087455	0,000807600387	0,00201023323	23,6872883
3160,05566	512,036316	202,517914	550,631165	-21,5795288	108487,2727	1,68725133	-0,0160570834	0,248692095	0,0336408764	1	12	0,010431814	1,8945193E-005	0,00168880378	0,000667946821	0,00181609776	21,5795288
2152,93286	568,009583	201,039169	602,537659	-19,4907169	108487,7242	1,68725276	-0,0161035322	0,367712975	0,0409356728	1	12	0,0104937376	1,74159031E-005	0,00156454218	0,000553748163	0,00165964733	19,4907169
1468,58972	622,380249	193,552032	651,78186	-17,2750034	108488,1752	1,68724787	-0,0161581784	0,559914768	0,0493756533	1	12	0,0105029372	1,61141907E-005	0,00146504608	0,000455609988	0,00153425569	17,2750034
999,040405	674,240051	181,609039	698,270386	-15,0750542	108488,6262	1,68725312	-0,016203519	0,877202094	0,059337236	1	12	0,0104962066	1,50317228E-005	0,00138282531	0,000372469076	0,00143210997	15,0750542
681,089661	721,480713	164,438431	739,982727	-12,8394165	108489,0767	1,68725264	-0,0162613411	1,42106032	0,0701739639	1	12	0,0104874223	1,41725232E-005	0,00131759397	0,000300303363	0,00135138293	12,8394165
464,553894	761,845764	144,993317	775,520508	-10,7755766	108489,5282	1,68724823	-0,0162922125	2,36284947	0,0825934187	1	12	0,010476727	1,35092841E-005	0,00126671954	0,00024108011	0,0012894565	10,7755766
316,315765	795,142944	122,096146	804,462402	-8,72972298	108489,9771	1,68725228	-0,0163333714	4,12094975	0,094926998	1	12	0,0104723787	1,30178596E-005	0,00122866558	0,000188664621	0,00124306616	8,72972298
215,344498	821,493408	102,294777	827,837952	-7,09810162	108490,4277	1,68725669	-0,0163652673	7,22491693	0,110318698	1	12	0,0104706185	1,264815E-005	0,00119870808	0,000149266649	0,00120796589	7,09810162
146,737289	840,682434	84,765976	844,945129	-5,75767136	108490,8746	1,68725514	-0,0164105501	12,7955236	0,128778741	1	12	0,0104672443	1,23880754E-005	0,00117753807	0,000118731114	0,00118350878	5,75767136
99,9040375	854,737183	69,1803741	857,532288	-4,62729597	108491,3262	1,6872524	-0,0164405387	23,0278931	0,149871498	1	12	0,0104661053	1,22049114E-005	0,00116233586	9,40766695E-005	0,00116613682	4,62729597
68,1888962	866,051697	58,1468773	868,001526	-3,84108496	108491,7883	1,68725109	-0,0164707508	40,1402512	0,180132419	1	12	0,0104677221	1,20595669E-005	0,00114948384	7,71765626E-005	0,00115207175	3,84108496
46,3802681	873,765076	49,8187675	875,184143	-3,26325488	108492,2270	1,68724966	-0,0164999273	68,8801193	0,223193198	1	12	0,0104691116	1,19621818E-005	0,00114076398	6,50420334E-005	0,00114261673	3,26325488
31,5869217	881,886536	45,2259216	883,04541	-2,93573666	108492,6569	1,68725383	-0,0165316463	111,410324	0,292236328	1	12	0,0104658743	1,18520229E-005	0,00113095844	5,79991174E-005	0,00113244459	2,93573666
21,5220375	888,756348	43,3317108	889,812073	-2,79127073	108493,0788	1,687253	-0,0165570509	170,659683	0,404711932	1	12	0,0104663623	1,17624413E-005	0,00112249947	5,4727956E-005	0,00112383277	2,79127073
14,6851501	894,602539	44,7836075	895,722778	-2,86582184	108493,5393	1,68724954	-0,0165972654	242,004074	0,604941785	1	12	0,0104691964	1,16879874E-005	0,0011150206	5,58176871E-005	0,00111641688	2,86582184
9,9904108	901,253296	48,4860611	902,55658	-3,07945728	108493,9902	1,68725121	-0,0166180674	328,563934	0,948210597	1	12	0,0104664015	1,1596394E-005	0,00110636384	5,95206948E-005	0,00110796373	3,07945728
6,81718969	908,809204	56,8943634	910,588318	-3,58222413	108494,3297	1,68724823	-0,016623592	410,341522	1,60191631	1	12	0,0104651712	1,14927579E-005	0,00109604548	6,86159474E-005	0,00109819113	3,58222413
4,63925123	918,32843	69,3381348	920,942383	-4,31790876	108495,0755	1,68726134	-0,0166335739	494,766296	2,80465531	1	13	0,0104699144	1,13686965E-005	0,00108276226	8,17536566E-005	0,00108584424	4,31790876
3,16039586	931,791077	86,4110641	935,789246	-5,29825735	108495,7694	1,68725955	-0,016693471	582,786255	4,96926212	1	13	0,0104700448	1,11884647E-005	0,00106405094	9,86763844E-005	0,00106861664	5,29825735
2,1522038	950,941772	106,002357	956,831604	-6,36055565	108496,7748	1,68725991	-0,0166955628	697,623657	8,56211853	1	13	0,0104706269	1,09430193E-005	0,00103868265	0,000115782925	0,00104511599	6,36055565
1,46630979	975,489746	136,441956	984,985596	-7,96231699	108498,2363	1,68726242	-0,0167172458	795,511536	15,2645006	1	13	0,0104607949	1,06202515E-005	0,00100545562	0,000140633303	0,00101524324	7,96231699
0,998529792	1005,44916	167,589508	1019,3205	-9,46313381	108500,3679	1,68726194	-0,0167903788	951,069519	25,7089539	1	13	0,010466258	1,02678778E-005	0,000967695203	0,000161296615	0,000981045654	9,46313381