File: Experimentelles/Ausgewaehlte_Daten/LiS/PEIS/LiS_NMR_04_PEIS_C01.mpt
EC-Lab ASCII FILE
Nb header lines : 68

Potentio Electrochemical Impedance Spectroscopy

Run on channel : 1 (SN 6985)
Grouped channel(s) : 1
User :
CE vs. WE compliance from -10 V to 10 V
Electrode connection : standard
Ewe ctrl range : min = 0,00 V, max = 5,00 V
Acquisition started on : 09.17.2015 16:13:32
Saved on :
	File : LiS_NMR_04_PEIS_C01.mpr
	Directory : C:\Gielisch\NeueZelle\LiS-Test\150917\
	Host : 192.168.0.2
Device : VMP3 (SN 0324)
Address : 192.168.0.1
EC-Lab for windows v10.33 (software)
Internet server v10.33 (firmware)
Command interpretor v10.32 (firmware)
Electrode material :
Initial state :
Electrolyte :
Comments :
Mass of active material : 0,001 mg
 at x = 0,000
Molecular weight of active material (at x = 0) : 0,001 g/mol
Atomic weight of intercalated ion : 0,001 g/mol
Acquisition started at : xo = 0,000
Number of e- transfered per intercalated ion : 1
for DX = 1, DQ = 26,801 mA.h
Battery capacity : 0,000 A.h
Electrode surface area : 0,001 cm²
Characteristic mass : 0,001 g
Multi Sine          0
E (V)               0,0000
vs.                 Eoc
tE (h:m:s)          0:00:0,0000
record              0
dI                  0,000
unit dI             mA
dt (s)              0,000
fi                  1,000
unit fi             MHz
ff                  1,000
unit ff             Hz
Sel Nd              1
Nd                  6
Nt                  51
Log                 1
Va (mV)             10,0
pw                  0,10
Na                  2
E range min (V)     0,000
E range max (V)     5,000
I Range             Auto
Bandwidth           5
corr                0
nc cycles           0
goto Ns'            0
nr cycles           0
inc. cycle          0

Number of loops : 1
Loop 0 from point number 0 to 36

freq/Hz	Re(Z)/Ohm	-Im(Z)/Ohm	|Z|/Ohm	Phase(Z)/deg	time/s	<Ewe>/V	<I>/mA	Cs/µF	Cp/µF	cycle number	I Range	|Ewe|/V	|I|/A	Re(Y)/Ohm-1	Im(Y)/Ohm-1	|Y|/Ohm-1	Phase(Y)/deg
1000024,25	30,3602619	-4,41804743	30,6800365	8,27960682	3224,0383	2,6730001	0,87721622	-0,0360229462	-0,000747013139	1	10	0,000836492341	2,72650377E-005	0,0322547592	-0,00469373632	0,0325944871	-8,27960682
681286,5	28,0933704	0,873048007	28,1069336	-1,77998829	3225,2703	2,6733954	0,871086597	0,267579108	0,000258167478	1	10	0,00362383272	0,000128930202	0,0355612449	0,00110512448	0,0355784111	1,77998829
464160,125	28,6703644	2,9047184	28,8171329	-5,7851429	3225,5843	2,67358208	0,87046802	0,118045181	0,00119937444	1	10	0,00985896122	0,000342121522	0,0345248394	0,00349786063	0,0347015783	5,7851429
316223,094	29,6677151	3,9527595	29,9298782	-7,5890727	3226,0003	2,6737144	0,868213654	0,127328664	0,0022208388	1	10	0,0101542538	0,000339268125	0,0331187695	0,00441255886	0,0334114283	7,5890727
215441,859	30,8363819	4,76373863	31,2021732	-8,78187943	3226,4163	2,67376065	0,865100384	0,155075118	0,00361466687	1	10	0,0101489211	0,000325263274	0,0316733271	0,00489303377	0,0320490487	8,78187943
146777,328	31,9830799	5,48377371	32,4497948	-9,729249	3226,8323	2,67380357	0,862342954	0,197734132	0,00564698689	1	10	0,010139849	0,000312478049	0,0303736087	0,00520781567	0,0308168363	9,729249
100024,406	33,1819038	6,28041124	33,7710266	-10,7177143	3227,1463	2,67386627	0,860159457	0,253353029	0,00876221061	1	10	0,010708252	0,000317083992	0,0290946253	0,00550680328	0,0296111815	10,7177143
68127,4297	34,4742699	7,61737013	35,3058014	-12,4597702	3227,4603	2,67381787	0,857603252	0,306685388	0,0142761488	1	10	0,0104059782	0,000294738478	0,0276568644	0,00611100905	0,0283239577	12,4597702
46411,125	36,2031746	9,04791546	37,3166809	-14,0319557	3227,7743	2,67382169	0,855000496	0,379009008	0,0222813021	1	10	0,0103179393	0,000276496692	0,0259980429	0,00649744319	0,0267976671	14,0319557
31628,4121	38,5909767	10,9086885	40,1031532	-15,7842493	3228,0883	2,67381263	0,85226357	0,461285919	0,0341317244	1	10	0,0101463422	0,000253006088	0,0239954386	0,00678290101	0,0249356944	15,7842493
21545,4082	41,6477242	12,6877069	43,5374641	-16,9430141	3228,3003	2,67381048	0,850314796	0,582213461	0,0494449884	1	10	0,0107687153	0,000247343647	0,0219717678	0,00669355551	0,0229687244	16,9430141
14672,8496	45,6625404	14,0825968	47,7848015	-17,1400719	3228,7463	2,67379785	0,838921845	0,770234406	0,0668973401	1	11	0,00910535827	0,000190549254	0,0199977197	0,00616741506	0,0209271554	17,1400719
10015,2705	50,3735809	14,7589407	52,4911804	-16,3300419	3228,9985	2,6738131	0,837064326	1,07671869	0,0851216316	1	11	0,00997832604	0,000190095292	0,0182822719	0,00535651762	0,0190508198	16,3300419
6856,00244	55,1398659	14,1569252	56,9282303	-14,3994284	3229,3489	2,67382789	0,834440291	1,63975966	0,101405784	1	11	0,0102472743	0,000180003393	0,0170141533	0,00436831126	0,0175659768	14,3994284
4642,42725	59,3614197	12,4455557	60,6520386	-11,8409729	3229,8001	2,6738193	0,830607235	2,75461388	0,115984112	1	11	0,00965002179	0,00015910466	0,0161366537	0,00338316755	0,0164874922	11,8409729
3160,05566	62,3679886	10,4095373	63,2307243	-9,4756155	3230,2511	2,67382264	0,826627493	4,8383131	0,131129533	1	11	0,00997342169	0,000157730625	0,0155993113	0,00260360516	0,015815096	9,4756155
2152,93286	64,5579453	8,45166016	65,1088257	-7,45850945	3230,7027	2,67382336	0,822517335	8,746768	0,147384539	1	11	0,0101140914	0,000155341331	0,0152289504	0,00199371134	0,0153589007	7,45850945
1468,58972	66,020813	6,86101484	66,376358	-5,93299532	3231,1537	2,67382479	0,818381131	15,7954254	0,168764532	1	11	0,0101784356	0,000153344299	0,0149849048	0,00155726145	0,0150656048	5,93299532
999,040405	67,0753098	5,69772673	67,3168716	-4,85534668	3231,6047	2,67381763	0,814242005	27,9598923	0,200304568	1	11	0,0102018891	0,000151550252	0,0148018096	0,00125734298	0,0148551166	4,85534668
681,089661	67,9392776	4,92081976	68,1172485	-4,14268064	3232,0551	2,67382574	0,81016767	47,4873962	0,247821569	1	11	0,0102171851	0,000149994099	0,0146422125	0,00106053066	0,0146805691	4,14268064
464,553894	68,7473373	4,51107502	68,8951797	-3,75426269	3232,5067	2,67382598	0,806054831	75,9458389	0,325601518	1	11	0,0102214431	0,000148362233	0,0144836558	0,000950391172	0,0145148039	3,75426269
316,315765	69,4563522	4,28987789	69,588707	-3,534307	3232,9556	2,67382765	0,801921248	117,288216	0,445724696	1	11	0,0102235451	0,000146913851	0,0143428165	0,000885864778	0,0143701481	3,534307
215,344498	70,1959	4,37557554	70,3321381	-3,5668478	3233,4061	2,67382598	0,797933519	168,908356	0,653753281	1	11	0,0102236606	0,000145362574	0,0141907092	0,000884560577	0,0142182512	3,5668478
146,737289	70,9305191	4,68774557	71,0852585	-3,78113675	3233,8531	2,67383122	0,793971837	231,374542	1,00620055	1	11	0,0102219693	0,000143798723	0,0140369926	0,000927694375	0,0140676145	3,78113675
99,9040375	71,7457352	5,29389572	71,9407806	-4,22003078	3234,3046	2,67382383	0,789911449	300,927399	1,62952936	1	11	0,010221472	0,000142081757	0,0138626359	0,00102288101	0,0139003219	4,22003078
68,1888962	72,6840286	6,21620941	72,9493637	-4,88825369	3234,7668	2,67382813	0,785849392	375,474823	2,7263968	1	11	0,0102184489	0,000140075921	0,0136582796	0,00116810692	0,0137081388	4,88825369
46,3802681	73,9059982	7,43131208	74,2786713	-5,74184132	3235,2055	2,67382503	0,781648397	461,76535	4,62193775	1	11	0,0102201533	0,000137592026	0,0133952685	0,00134690583	0,0134628145	5,74184132
31,5869217	75,3876114	9,02433968	75,925827	-6,82615948	3235,6354	2,67382264	0,777910113	558,338257	7,88767862	1	11	0,010220143	0,000134606933	0,0130773857	0,00156543986	0,0131707489	6,82615948
21,5220375	77,1883392	11,1484175	77,9892731	-8,21847534	3236,0573	2,67382407	0,773965955	663,320679	13,5543985	1	11	0,010222869	0,000131080451	0,0126905935	0,00183291978	0,012822276	8,21847534
14,6851501	79,419754	13,8028984	80,6102829	-9,85934162	3236,5177	2,67382669	0,770188391	785,184021	23,0213699	1	11	0,0102232704	0,000126823405	0,0122221513	0,00212417054	0,0124053648	9,85934162
9,9904108	82,1292648	16,9974041	83,8697052	-11,6928091	3236,9687	2,6738286	0,766076803	937,247253	38,4954262	1	11	0,0102244085	0,000121908241	0,0116758281	0,00241641956	0,0119232563	11,6928091
6,81718969	85,529129	21,6246891	88,2205124	-14,1889772	3237,3081	2,67382312	0,763695896	1079,60498	64,8672485	1	11	0,0102232667	0,0001158831	0,0109894229	0,00277850218	0,0113352323	14,1889772
4,63925123	88,9843674	26,2482243	92,7749252	-16,4347782	3237,7930	2,67382908	0,759131789	1306,99011	104,619095	1	11	0,0102208108	0,000110167814	0,01033838	0,00304957083	0,0107787745	16,4347782
3,16039586	94,1628647	33,3312263	99,8880157	-19,492651	3238,4870	2,67383075	0,753659844	1510,87085	168,229889	1	11	0,0102214869	0,000102329461	0,00943741109	0,00334060052	0,010011211	19,492651
2,1522038	102,889915	42,9986916	111,513329	-22,6805229	3239,4923	2,67383194	0,745992899	1719,81409	255,704529	1	11	0,0102241421	9,16853824E-005	0,00827407185	0,00345781469	0,00896753836	22,6805229
1,46630979	111,787338	58,7621346	126,290924	-27,7291107	3240,9537	2,67383432	0,734647095	1847,12732	399,896576	1	11	0,010224917	8,09631965E-005	0,00700887525	0,0036842858	0,0079182256	27,7291107
0,998529792	121,045494	74,5950623	142,184509	-31,6437206	3243,0854	2,67383552	0,718598485	2136,72705	588,118225	1	11	0,0102220159	7,18926094E-005	0,00598747935	0,00368982297	0,00703311479	31,6437206