File: Experimentelles/Rohdaten/Batteriemessungen/AlteZelle/Batterietest Li vs LATP/ZView-Export/LATP vs Li Batterietest Probe1_02_GCPL_C01_loop6.txt
EC-Lab ASCII FILE
Nb header lines : 3
mode	ox/red	error	control changes	Ns changes	counter inc.	Ns	time/s	control/V/mA	Ewe/V	dq/mA.h	<I>/mA	P/W	(Q-Qo)/mA.h	x	Capacity/mA.h
1	1	0	1	1	0	1	20871,75	0,100000001	1,21261787	0	0	0	0	0	0
1	1	0	1	0	0	1	20927,75	0,100000001	2,10414004	5,5562880323992832E-005	0,1000131857940661	0,000210441751	0,0015543906523434774	-5,7996405139394355E-005	0,0015543906523434774
1	1	0	1	0	0	1	20983,75	0,100000001	2,5146997	5,556288907594151E-005	0,1000132015475739	0,000251503167	0,0031101509530004653	-0,00011604391369887752	0,0031101509530004653
1	1	0	1	0	0	1	21039,75	0,100000001	2,55203032	5,5562938421964646E-005	0,10001329037041661	0,000255236955	0,004665911271184944	-0,00017409142291233494	0,004665911271184944
1	1	0	1	0	0	1	21095,75	0,100000001	2,57215619	5,5562801523341075E-005	0,1000130439528912	0,000257249165	0,0062216687071106624	-0,00023213882458484278	0,0062216687071106624
1	1	0	1	0	0	1	21151,75	0,100000001	2,58844423	5,5562809917247962E-005	0,10001305906192379	0,000258878223	0,0077774272233697408	-0,00029018626656604077	0,0077774272233697408
1	1	0	1	0	0	1	21207,75	0,100000001	2,60354829	5,5562895236743821E-005	0,10001321263701819	0,000260389235	0,0093331868225644992	-0,00034823374895302509	0,0093331868225644992
1	1	0	1	0	0	1	21263,75	0,100000001	2,61853766	5,556298740911815E-005	0,10001337854729398	0,00026188881	0,010888947392054584	-0,00040628126754303251	0,010888947392054584
1	1	0	1	0	0	1	21319,75	0,100000001	2,63381362	5,5562980519814624E-005	0,10001336614654749	0,000263416558	0,012444709592110029	-0,00046432884697162586	0,012444709592110029
1	1	0	1	0	0	1	21375,75	0,100000001	2,64977694	5,5562903830988544E-005	0,10001322810665888	0,000265012757	0,014000469931783227	-0,00052237635698685626	0,014000469931783227
1	1	0	1	0	0	1	21431,75	0,100000001	2,66677141	5,5562823836174272E-005	0,10001308411599146	0,000266712043	0,015556229385769069	-0,00058042383395590054	0,015556229385769069
1	1	0	1	0	0	1	21487,75	0,100000001	2,68473983	5,5562942962679603E-005	0,10001329854370365	0,000268509699	0,017111991770818278	-0,00063847142028686003	0,017111991770818278
1	1	0	1	0	0	1	21543,75	0,100000001	2,70387292	5,5562855076458714E-005	0,10001314034850413	0,00027042281	0,018667753893760618	-0,00069651899683825971	0,018667753893760618
1	1	0	1	0	0	1	21599,75	0,100000001	2,72459078	5,5562950453410541E-005	0,1000133120270195	0,000272495352	0,020223513504041837	-0,00075456647963889498	0,020223513504041837
1	1	0	1	0	0	1	21655,75	0,100000001	2,74716115	5,5562737465732627E-005	0,10001292864919459	0,000274751626	0,021779270925203824	-0,00081261388076054797	0,021779270925203824
1	1	0	1	0	0	1	21711,75	0,100000001	2,771698	5,5562736911492218E-005	0,10001292765156184	0,000277205632	0,023335027335520691	-0,00087066124416621069	0,023335027335520691
1	1	0	1	0	0	1	21767,75	0,100000001	2,79923296	5,5562736356423962E-005	0,10001292665243899	0,000279959495	0,024890782679953776	-0,00092870856780231629	0,024890782679953776
1	1	0	1	0	0	1	21823,75	0,100000001	2,83098769	5,5562935991005766E-005	0,10001328599469058	0,000283136382	0,026446541460953917	-0,00098675601966135923	0,026446541460953917
1	1	0	1	0	0	1	21879,75	0,100000001	2,86772633	5,5563060645841888E-005	0,10001351037339832	0,000286811381	0,028002304038469434	-0,0010448036131734954	0,028002304038469434
1	1	0	1	0	0	1	21935,75	0,100000001	2,9109571	5,5562981933355334E-005	0,1000133686909208	0,000291134638	0,029558067599061325	-0,0011028512433655328	0,029558067599061325
1	1	0	1	0	0	1	21991,75	0,100000001	2,96299076	5,5562915172013971E-005	0,10001324852050488	0,000296338345	0,031113830360696	-0,0011608988437474022	0,031113830360696
1	1	0	1	0	0	1	22047,75	0,100000001	3,02663422	5,556303591074215E-005	0,10001346585021826	0,000302704168	0,03266959283747385	-0,001218946433500881	0,03266959283747385
1	1	0	1	0	0	1	22103,75	0,100000001	3,10732913	5,5562964501480262E-005	0,1000133373135453	0,000310774369	0,034225358362526387	-0,0012769941369895862	0,034225358362526387
1	1	0	1	0	0	1	22159,75	0,100000001	3,21252298	5,5562973188857242E-005	0,10001335295082406	0,0003212952	0,035781123889095104	-0,0013350418405348621	0,035781123889095104
1	1	0	1	0	0	1	22215,75	0,100000001	3,35302329	5,5562982929249606E-005	0,10001337048353051	0,000335347169	0,03733688702364167	-0,0013930894548305757	0,03733688702364167
1	1	0	1	0	0	1	22271,75	0,100000001	3,54141378	5,5563004064063232E-005	0,1000134085261955	0,000354188873	0,038892650186545165	-0,0014511370701843245	0,038892650186545165
1	1	0	1	0	0	1	22327,75	0,100000001	3,79060221	5,5563029040065075E-005	0,10001345348299936	0,00037911121	0,040448413152140307	-0,0015091846781762333	0,040448413152140307
1	1	0	1	0	0	1	22383,75	0,100000001	4,09978724	5,5562917624910675E-005	0,10001325293571901	0,00041003307	0,042004173416710406	-0,0015672321853892659	0,042004173416710406
1	1	0	1	0	0	1	22439,75	0,100000001	4,3838563	5,5562816257278125E-005	0,10001307047397821	0,000438442919	0,043559932121208422	-0,0016252796343939117	0,043559932121208422
1	0	0	0	0	0	2	22492,63	-0,100000001	3,77587438	-5,5545258700019782E-005	-0,099981466870530586	0,000377517455	0,043917930425360653	-0,0016386370324556704	0,00055545542528935597
1	0	0	0	0	0	2	22548,63	-0,100000001	2,56040716	-5,5545252431597978E-005	-0,099981455587371187	0,000255993247	0,042362662867611328	-0,0015806079087965722	0,0021107229830386733
1	0	0	0	0	0	2	22604,63	-0,100000001	2,44041467	-5,5545293389923046E-005	-0,099981529312357197	0,000243996386	0,040807396577563405	-0,0015225788324371178	0,0036659892730866035
1	0	0	0	0	0	2	22660,63	-0,100000001	2,41362453	-5,5545198256770771E-005	-0,09998135807268105	0,000241317452	0,039252131903296806	-0,0014645498163646368	0,0052212539473531987
1	0	0	0	0	0	2	22716,63	-0,100000001	2,40025806	-5,5545231639511059E-005	-0,099981418161614285	0,000239981207	0,037696868496095834	-0,0014065208475680778	0,0067765173545541875
1	0	0	0	0	0	2	22772,63	-0,100000001	2,38702536	-5,5545146656119155E-005	-0,099981265191507008	0,000238657813	0,036141604272472211	-0,0013484918483096925	0,008331781578177792
1	0	0	0	0	0	2	22828,63	-0,100000001	2,37224603	-5,5545196151153914E-005	-0,099981354282570624	0,000237180371	0,034586338860093562	-0,0012904628046972579	0,0098870469905564301
1	0	0	0	0	0	2	22884,63	-0,100000001	2,35544252	-5,5545298711707194E-005	-0,099981538891568781	0,000235500775	0,033031074767752499	-0,0012324338103372014	0,011442311082897494
1	0	0	0	0	0	2	22940,63	-0,100000001	2,33615661	-5,5545237373974586E-005	-0,099981428483648755	0,000233572267	0,03147581016945079	-0,0011744047970990728	0,012997575681199211
1	0	0	0	0	0	2	22996,63	-0,100000001	2,3147893	-5,5545061402850682E-005	-0,099981111735621888	0,000231435202	0,029920545384246701	-0,0011163757768873648	0,01455284046640329
1	0	0	0	0	0	2	23052,63	-0,100000001	2,29158902	-5,554516499365369E-005	-0,099981298199069568	0,000229116049	0,028365282544190944	-0,0010583468292517565	0,016108103306459046
1	0	0	0	0	0	2	23108,63	-0,100000001	2,26657462	-5,5545116520176333E-005	-0,099981210946809254	0,00022661488	0,026810020124418707	-0,0010003178972974912	0,017663365726231283
1	0	0	0	0	0	2	23164,63	-0,100000001	2,23955536	-5,554515245763792E-005	-0,099981275634240909	0,000223913608	0,025254757888094662	-0,00094228897218792474	0,019218627962555328
1	0	0	0	0	0	2	23220,63	-0,100000001	2,21020651	-5,5545116013536851E-005	-0,099981210034858189	0,000220979127	0,023699494847639814	-0,00088426001707515699	0,020773891003010179
1	0	0	0	0	0	2	23276,63	-0,100000001	2,17799354	-5,5545239512291219E-005	-0,099981432332618739	0,000217758919	0,022144229804474698	-0,00082623098723857626	0,022329156046175296
1	0	0	0	0	0	2	23332,63	-0,100000001	2,14190412	-5,5545034662716922E-005	-0,099981063603380544	0,000214149855	0,02058896675842239	-0,00076820203191695974	0,0238844190922276
1	0	0	0	0	0	2	23388,63	-0,100000001	2,10121274	-5,5545009692509971E-005	-0,099981018657007475	0,000210081387	0,019033706860443206	-0,00071017319405418394	0,025439678990206784
1	0	0	0	0	0	2	23444,63	-0,100000001	2,05467844	-5,5545151260991891E-005	-0,099981273480278016	0,000205429373	0,017478445115545821	-0,00065214428728040678	0,02699494073510417
1	0	0	0	0	0	2	23500,63	-0,100000001	2,00060177	-5,5545105406807526E-005	-0,099981190942745165	0,00020002255	0,015923180842931331	-0,00059411528619410611	0,028550205007718662
1	0	0	0	0	0	2	23556,63	-0,100000001	1,93711114	-5,5544950302690266E-005	-0,099980911755330726	0,000193674132	0,014367921412923528	-0,00053608646579197171	0,030105464437726464
1	0	0	0	0	0	2	23612,63	-0,100000001	1,8620491	-5,5544925560553869E-005	-0,099980867219484659	0,000186169287	0,01281266396001007	-0,00047805771915788563	0,03166072189063991
1	0	0	0	0	0	2	23668,63	-0,100000001	1,7742182	-5,5544968360000186E-005	-0,099980944258488986	0,000177388007	0,011257405485007754	-0,00042002893438829005	0,033215980365642234
1	0	0	0	0	0	2	23724,63	-0,100000001	1,67188859	-5,5545012133816877E-005	-0,099981023051359962	0,000167157137	0,009702146210531648	-0,00036200011978925242	0,034771239640118349
1	0	0	0	0	0	2	23780,63	-0,100000001	1,55888498	-5,554515836098128E-005	-0,099981286260259085	0,000155859321	0,0081468849629087654	-0,00030397123156945568	0,036326500887741242
1	0	0	0	0	0	2	23836,63	-0,100000001	1,4409548	-5,5545095562520954E-005	-0,09998117322302912	0,000144068355	0,0065916215718780186	-0,00024594226337622966	0,037881764278772
1	0	0	0	0	0	2	23892,63	-0,100000001	1,32808483	-5,5545165554102925E-005	-0,099981299207878182	0,000132783651	0,0050363568235274048	-0,0001879132445395745	0,039437029027122598
1	0	0	0	0	0	2	23948,63	-0,100000001	1,25691807	-5,5545128285470938E-005	-0,099981232124339802	0,000125668215	0,0034810916730043853	-0,0001298842106973261	0,040992294177645613
1	0	0	0	0	0	2	24004,63	-0,100000001	1,22501051	-5,5544963762991962E-005	-0,099980935983874061	0,000122477693	0,0019258283277189632	-7,1855244210919667E-005	0,042547557522931027
1	0	0	0	0	0	2	24060,63	-0,100000001	1,20413983	-5,554497630438871E-005	-0,09998095855838848	0,000120391058	0,00037056537541400064	-1,3826292387142538E-005	0,044102820475236
1	0	0	0	0	0	2	24073,84	-0,100000001	1,20007253	-3,3665822821358842E-005	-0,099980996225043597	0,000119984448	3,6292268491519802E-006	-1,3541133328925546E-007	0,044469756623800851