File: Experimentelles/Rohdaten/Batteriemessungen/AlteZelle/Batterietest Li vs LATP/ZView-Export/LATP vs Li Batterietest Probe1_02_GCPL_C01_loop0.txt
EC-Lab ASCII FILE
Nb header lines : 3
mode	ox/red	error	control changes	Ns changes	counter inc.	Ns	time/s	control/V/mA	Ewe/V	dq/mA.h	<I>/mA	P/W	(Q-Qo)/mA.h	x	Capacity/mA.h
1	1	0	1	1	0	1	1800,00	0,100000001	2,48391867	0	0	0	0	0	0
1	1	0	1	0	0	1	1846,00	0,100000001	2,66329622	5,5563019562098714E-005	0,10001343773832963	0,000266365416	0,001276575616927457	-4,7630752641734874E-005	0,001276575616927457
1	1	0	1	0	0	1	1892,00	0,100000001	2,69760966	5,5562803901731968E-005	0,10001304954965968	0,000269796175	0,0025545229300478397	-9,5312685112692954E-005	0,0025545229300478397
1	1	0	1	0	0	1	1938,00	0,100000001	2,73373723	5,5562874571730688E-005	0,10001317675566059	0,000273409736	0,0038324687821755942	-0,00014299456307205173	0,0038324687821755942
1	1	0	1	0	0	1	1984,00	0,100000001	2,77341652	5,5562922111815872E-005	0,1000132623278161	0,000277378422	0,0051104135795180326	-0,00019067640167595222	0,0051104135795180326
1	1	0	1	0	0	1	2030,00	0,100000001	2,81861424	5,5562900069273184E-005	0,10001322265123824	0,000281898683	0,0063883587793876045	-0,00023835825529868128	0,0063883587793876045
1	1	0	1	0	0	1	2076,00	0,100000001	2,87292004	5,5562891072697107E-005	0,1000132064574009	0,000287329953	0,007666304712527177	-0,00028604013628069987	0,007666304712527177
1	1	0	1	0	0	1	2122,00	0,100000001	2,93923664	5,5562856638597114E-005	0,10001314447601936	0,000293962308	0,0089442508869496627	-0,00033372202626530842	0,0089442508869496627
1	1	0	1	0	0	1	2168,00	0,100000001	3,021173	5,5562814308123456E-005	0,10001306828116483	0,000302156783	0,010222195682238635	-0,0003814038647925913	0,010222195682238635
1	1	0	1	0	0	1	2214,00	0,100000001	3,12401819	5,5562844883236621E-005	0,10001312331636992	0,000312442804	0,0115001397968674	-0,00042908567792352672	0,0115001397968674
1	1	0	1	0	0	1	2260,00	0,100000001	3,25428367	5,5562704650064314E-005	0,10001287089665339	0,000325470261	0,012778084331099203	-0,00047676750671041562	0,012778084331099203
1	1	0	1	0	0	1	2306,00	0,100000001	3,41796517	5,556257341926297E-005	0,10001263468120502	0,00034183971	0,01405602588957615	-0,00052444922446788998	0,01405602588957615
1	1	0	1	0	0	1	2352,00	0,100000001	3,61620855	5,5562728906671206E-005	0,1000129145585469	0,000361667568	0,015333967392543798	-0,0005721309401542377	0,015333967392543798
1	1	0	1	0	0	1	2398,00	0,100000001	3,84282684	5,556264405490624E-005	0,10001276182536611	0,000384331739	0,016611909604408522	-0,00061981268229048845	0,016611909604408522
1	1	0	1	0	0	1	2444,00	0,100000001	4,07517385	5,5562747435851232E-005	0,10001294791107179	0,000407570158	0,017889851623989907	-0,00066749441725238925	0,017889851623989907
1	1	0	1	0	0	1	2490,00	0,100000001	4,24736595	5,5562653324256339E-005	0,1000127785101967	0,000424790866	0,019167793877434243	-0,0007151761609400311	0,019167793877434243
1	1	0	1	0	0	1	2536,00	0,100000001	4,36934423	5,5562710129966342E-005	0,10001288076047728	0,000436990696	0,020445735910377818	-0,00076285789640049331	0,020445735910377818
1	1	0	1	0	0	1	2582,00	0,100000001	4,46029329	5,5562820399387014E-005	0,10001307924543952	0,000446087681	0,021723680574946765	-0,00081053973005043635	0,021723680574946765
1	0	0	0	0	0	2	2625,62	-0,100000001	3,8162601	-5,5545465394440627E-005	-0,099981840235746854	0,000381556718	0,021824296564001834	-0,00081429384788171699	0,00055545799300985203
1	0	0	0	0	0	2	2671,62	-0,100000001	2,74482584	-5,5545335833397171E-005	-0,099981607025862746	0,000274432095	0,020546752227266867	-0,00076662695100150618	0,0018330023297448125
1	0	0	0	0	0	2	2717,62	-0,100000001	2,49540806	-5,5545206358449331E-005	-0,099981373970950733	0,000249494333	0,019269210318854112	-0,00071896014472526221	0,0031105442381575693
1	0	0	0	0	0	2	2763,62	-0,100000001	2,4308672	-5,5545260556870035E-005	-0,09998147152811049	0,000243041679	0,017991669793434269	-0,00067129339005034317	0,0043880847635774144
1	0	0	0	0	0	2	2809,62	-0,100000001	2,40772438	-5,5545239141417875E-005	-0,099981432980295616	0,000240727735	0,016714128623491597	-0,00062362661132741069	0,0056656259335200819
1	0	0	0	0	0	2	2855,62	-0,100000001	2,39533162	-5,5545318885395923E-005	-0,099981576519459725	0,000239489033	0,01543658822286856	-0,00057595986130882829	0,0069431663341431142
1	0	0	0	0	0	2	2901,62	-0,100000001	2,38400841	-5,5545250060657658E-005	-0,099981452634927718	0,000238356617	0,014159047269334216	-0,00052829309066038163	0,0082207072876774605
1	0	0	0	0	0	2	2947,62	-0,100000001	2,37199759	-5,5545287099563411E-005	-0,09998151930495977	0,000237155924	0,012881504431079894	-0,00048062624969049856	0,0094982501259317798
1	0	0	0	0	0	2	2993,62	-0,100000001	2,35939503	-5,5545438826911981E-005	-0,099981792414194086	0,000235896543	0,011603961661812157	-0,00043295941129459763	0,01077579289519952
1	0	0	0	0	0	2	3039,62	-0,100000001	2,34536028	-5,5545329495850534E-005	-0,099981595618278515	0,000234492865	0,010326417579521146	-0,00038529252390803302	0,012053336977490531
1	0	0	0	0	0	2	3085,62	-0,100000001	2,3303709	-5,5545486944003238E-005	-0,099981879024960525	0,000232994862	0,0090488722118837005	-0,00033762558856346483	0,013330882345127974
1	0	0	0	0	0	2	3131,62	-0,100000001	2,31404471	-5,5545281031893357E-005	-0,099981508383153395	0,000231361686	0,0077713280263582694	-0,00028995869732508518	0,014608426530653408
1	0	0	0	0	0	2	3177,62	-0,100000001	2,29672551	-5,5545237193918886E-005	-0,09998142947479735	0,000229629906	0,0064937871431677542	-0,00024229192930126131	0,015885967413843923
1	0	0	0	0	0	2	3223,62	-0,100000001	2,27833724	-5,5545156575739386E-005	-0,099981284362070579	0,000227791083	0,0052162470412430502	-0,0001946251904275153	0,017163507515768624
1	0	0	0	0	0	2	3269,62	-0,100000001	2,2589941	-5,5545214197287955E-005	-0,099981388080860634	0,000225857366	0,003938706315374441	-0,00014695842827358326	0,018441048241637232
1	0	0	0	0	0	2	3315,62	-0,100000001	2,2384479	-5,554528271489673E-005	-0,099981511412559539	0,000223803407	0,0026611643194637194	-9,9291618732672422E-005	0,019718590237547952
1	0	0	0	0	0	2	3361,62	-0,100000001	2,21662235	-5,5545254181656576E-005	-0,099981460052725965	0,000221621143	0,0013836231584298774	-5,1624840342140467E-005	0,020996131398581789
1	0	0	0	0	0	2	3407,62	-0,100000001	2,19305944	-5,55452155429456E-005	-0,099981390503044442	0,00021926513	0,00010608336434163958	-3,9581129541868768E-006	0,022273671192670029
1	0	0	0	0	0	2	3453,62	-0,100000001	2,16777778	-5,5545314815723232E-005	-0,099981569194048691	0,000216737826	-0,0011714571781656978	4,3708642358289574E-005	0,023551211735177366
1	0	0	0	0	0	2	3499,62	-0,100000001	2,14052916	-5,5545072552644544E-005	-0,099981133120496051	0,000214012529	-0,0024489969067012432	9,1375367300384077E-005	0,024828751463712922
1	0	0	0	0	0	2	3545,62	-0,100000001	2,11068392	-5,5545243715246515E-005	-0,099981441213187392	0,000211029226	-0,0037265365074684384	0,00013904208747526965	0,026106291064480131
1	0	0	0	0	0	2	3591,62	-0,100000001	2,07801247	-5,554534310557776E-005	-0,099981620115788134	0,000207763049	-0,005004078162779593	0,00018670888430795267	0,027383832719791286
1	0	0	0	0	0	2	3637,62	-0,100000001	2,04178953	-5,5545458287828499E-005	-0,099981827443844723	0,000204141848	-0,0062816224861593882	0,00023437578068986397	0,028661377043171075
1	0	0	0	0	0	2	3683,62	-0,100000001	2,00144196	-5,5545400428275264E-005	-0,099981723296646259	0,000200107621	-0,0075591668375161152	0,00028204267811563216	0,029938921394527802
1	0	0	0	0	0	2	3729,62	-0,100000001	1,95639694	-5,5545189285857811E-005	-0,099981343240285235	0,000195603192	-0,0088367082808541107	0,00032970946703931168	0,031216462837865798
1	0	0	0	0	0	2	3775,62	-0,100000001	1,90550911	-5,5545248172763322E-005	-0,099981449236717824	0,000190515566	-0,010114250016042117	0,00037737626685230746	0,032494004573053792
1	0	0	0	0	0	2	3821,62	-0,100000001	1,84889269	-5,5545185815956858E-005	-0,09998133699446336	0,000184854769	-0,011391789595722933	0,00042504298624043181	0,033771544152734618
1	0	0	0	0	0	2	3867,62	-0,100000001	1,78705001	-5,5545118049614963E-005	-0,099981215015044864	0,000178671427	-0,012669328404989286	0,0004727096768833568	0,035049082962000973
1	0	0	0	0	0	2	3913,62	-0,100000001	1,71983588	-5,5545310130549798E-005	-0,099981560760736307	0,000171951877	-0,013946868847054515	0,00052037642844820326	0,036326623404066214
1	0	0	0	0	0	2	3959,62	-0,100000001	1,64320803	-5,5545295828332506E-005	-0,099981535016744525	0,000164290468	-0,015224410788862848	0,00056804323597048109	0,037604165345874541
1	0	0	0	0	0	2	4005,62	-0,100000001	1,56383049	-5,5545281764533786E-005	-0,099981509701906202	0,00015635413	-0,016501952460906765	0,00061571003342748608	0,038881707017918458
1	0	0	0	0	0	2	4051,62	-0,100000001	1,490888	-5,5545319121744896E-005	-0,099981576944887898	0,000149061336	-0,017779493705626778	0,00066337681494046144	0,04015924826263847
1	0	0	0	0	0	2	4097,62	-0,100000001	1,40969646	-5,5545409223271744E-005	-0,099981738064089536	0,000140943899	-0,019057038248592157	0,00071104371951540621	0,041436792805603821
1	0	0	0	0	0	2	4143,62	-0,100000001	1,33904529	-5,554559316030807E-005	-0,099982068899056781	0,000133880516	-0,020334584297703155	0,00075871068028666906	0,042714338854714816
1	0	0	0	0	0	2	4189,62	-0,100000001	1,28932214	-5,5545442895342912E-005	-0,099981798422116211	0,000128908752	-0,021612130162837805	0,00080637763419352678	0,043991884719849459
1	0	0	0	0	0	2	4235,62	-0,100000001	1,25762463	-5,5545465215212774E-005	-0,099981838597882458	0,000125739622	-0,022889675889440086	0,00085404458293155571	0,045269430446451744
1	0	0	0	0	0	2	4281,62	-0,100000001	1,23637199	-5,5545577868405312E-005	-0,099982041373631475	0,000123614998	-0,024167222419015859	0,00090171156162960512	0,046546976976027507
1	0	0	0	0	0	2	4327,62	-0,100000001	1,21945393	-5,5545566286477779E-005	-0,099982020526161677	0,000121923469	-0,025444771009943766	0,00094937861723947418	0,047824525566955392
1	0	0	0	0	0	2	4373,62	-0,100000001	1,20484626	-5,5545455822514163E-005	-0,099981821691024755	0,000120462726	-0,026722318553884634	0,00099704563378484928	0,049102073110896256
1	0	0	0	0	0	2	4390,00	-0,100000001	1,19999623	-1,0770264046887557E-005	-0,099981823205409702	0,000119977813	-0,027177452406353642	0,001014027289754441	0,049557206963365261