File: Experimentelles/Rohdaten/Batteriemessungen/AlteZelle/Studenten_Batterietests/Sonstige/ECLab-Export/LiCoO2 vs Li_05_GCPL_C01_loop4.mpt
EC-Lab ASCII FILE
Nb header lines : 3
mode	ox/red	error	control changes	Ns changes	counter inc.	Ns	time/s	control/V/mA	Ewe/V	dq/mA.h	<I>/mA	P/W	(Q-Qo)/mA.h	x	Capacity/mA.h
1	0	0	1	1	0	1	169841,40	-0,100000001	4,19598866	0	0	0	0	0	0
1	0	0	1	0	0	1	170301,40	-0,100000001	3,83469367	-0,00027771857948518464	-0,099978672971784102	0,000383387582	-0,012773677461179115	0,0004766030804685975	0,012773677461179115
1	0	0	1	0	0	1	170761,40	-0,100000001	3,78751016	-0,00027771885469017757	-0,099978772045566042	0,000378670607	-0,02554873415174783	0,00095325762184011469	0,02554873415174783
1	0	0	1	0	0	1	171221,40	-0,100000001	3,75140166	-0,00027771902454727226	-0,099978833194110566	0,000375060772	-0,038323794848821139	0,0014299123126997051	0,038323794848821139
1	0	0	1	0	0	1	171681,40	-0,100000001	3,71955132	-0,0002777187641879751	-0,099978739464778253	0,000371876056	-0,051098849534521434	0,0019065667792668858	0,051098849534521434
1	0	0	1	0	0	1	172141,40	-0,100000001	3,69020247	-0,00027771903022792602	-0,0999788352391456	0,000368942157	-0,063873915167659059	0,0023832216542976726	0,063873915167659059
1	0	0	1	0	0	1	172601,40	-0,100000001	3,66198015	-0,00027771892026729053	-0,099978795653323021	0,000366120366	-0,076648983851039053	0,002859876643137103	0,076648983851039053
1	0	0	1	0	0	1	173061,40	-0,100000001	3,63366246	-0,00027771889516131744	-0,099978786615174118	0,000363289175	-0,08942402832330089	0,0033365307286271629	0,08942402832330089
1	0	0	1	0	0	1	173521,40	-0,100000001	3,60421824	-0,00027771810204204586	-0,099978501092281024	0,000360344333	-0,10219906935820426	0,0038131846858647565	0,10219906935820426
1	0	0	1	0	0	1	173981,40	-0,100000001	3,57364726	-0,00027771798223877942	-0,099978457963111859	0,000357287732	-0,11497411207279011	0,0042898387057735629	0,11497411207279011
1	0	0	1	0	0	1	174441,40	-0,100000001	3,54124308	-0,00027771833991052374	-0,099978586724919654	0,000354048476	-0,12774915905879843	0,0047664928850548832	0,12774915905879843
1	0	0	1	0	0	1	174901,40	-0,100000001	3,50633764	-0,00027771861447518074	-0,099978685568180723	0,000350559043	-0,14052418344252878	0,0052431462210148243	0,14052418344252878
1	0	0	1	0	0	1	175361,40	-0,100000001	3,46866345	-0,00027771822578211626	-0,099978545643355008	0,00034679193	-0,15329922220260806	0,0057198000933756723	0,15329922220260806
1	0	0	1	0	0	1	175821,40	-0,100000001	3,42755198	-0,00027771861752826304	-0,099978686667290163	0,000342682149	-0,16607425334415741	0,0061964536814789261	0,16607425334415741
1	0	0	1	0	0	1	176281,40	-0,100000001	3,38290811	-0,00027771915174689558	-0,099978878985967795	0,000338219368	-0,17884931488606006	0,0066731084038602342	0,17884931488606006
1	0	0	1	0	0	1	176741,40	-0,100000001	3,3345027	-0,00027771843671012253	-0,099978621572769766	0,000333378994	-0,19162438753281706	0,0071497635405785894	0,19162438753281706
1	0	0	1	0	0	1	177201,40	-0,100000001	3,28151417	-0,00027771856045971312	-0,099978666122615411	0,000328081398	-0,20439944909258522	0,0076264182636264845	0,20439944909258522
1	0	0	1	0	0	1	177661,40	-0,100000001	3,2235229	-0,00027771881462592221	-0,099978757622436378	0,000322283828	-0,2171745004209177	0,0081030726049257587	0,2171745004209177
1	0	0	1	0	0	1	178121,40	-0,100000001	3,15984154	-0,00027771822120497626	-0,099978543990929254	0,000315916346	-0,22994954767307725	0,0085797267941375398	0,22994954767307725
1	0	0	1	0	0	1	178581,40	-0,100000001	3,08857918	-0,00027771850114895242	-0,099978644770744909	0,000308791961	-0,24272459506474234	0,0090563809885544602	0,24272459506474234
1	0	0	1	0	0	1	179041,40	-0,100000001	3,00788426	-0,00027771794493579203	-0,09997844453403849	0,000300723594	-0,25549964671702858	0,0095330353419408845	0,25549964671702858
1	0	0	1	0	0	1	179501,40	-0,100000001	2,91466284	-0,00027771709388453098	-0,099978138155632461	0,000291402568	-0,26827467570238522	0,01000968884959369	0,26827467570238522
1	0	0	1	0	0	1	179961,40	-0,100000001	2,80826616	-0,00027771752255327174	-0,099978292476354982	0,000280765642	-0,28104968212934266	0,01048634151556229	0,28104968212934266
1	0	0	1	0	0	1	180421,40	-0,100000001	2,69041228	-0,00027771810390344925	-0,099978501762386138	0,000268983393	-0,29382469800223597	0,010962994533971458	0,29382469800223597
1	0	0	1	0	0	1	180881,40	-0,100000001	2,56568432	-0,00027771744567031661	-0,099978264798495462	0,000256512663	-0,30659972457673779	0,011439647951672027	0,30659972457673779
1	0	0	1	0	0	1	181341,40	-0,100000001	2,43898964	-0,00027771768465679552	-0,099978350833614413	0,000243846167	-0,31937473613261805	0,011916300809007634	0,31937473613261805
1	0	0	1	0	0	1	181801,40	-0,100000001	2,30242276	-0,00027771712089661094	-0,099978147879979712	0,000230191959	-0,3321497506393319	0,012392953776442808	0,3321497506393319
1	0	0	1	0	0	1	182261,40	-0,100000001	2,09388733	-0,00027771724312462746	-0,099978191882058765	0,000209343067	-0,34492475184640173	0,012869606247650386	0,34492475184640173
1	0	0	1	0	0	1	182721,40	-0,100000001	1,78389966	-0,00027771730828450787	-0,099978215339612058	0,000178351111	-0,35769976978653094	0,013346259343190904	0,35769976978653094
1	0	0	1	0	0	1	183181,40	-0,100000001	1,54595804	-0,00027771826424822208	-0,099978559486495322	0,000154562658	-0,37047479253920666	0,013822912618294003	0,37047479253920666
1	1	0	0	0	0	2	183627,22	0,100000001	2,77620482	0,00027782456572684979	0,10001682801281373	0,00027766719	-0,36618955821485286	0,013663024764093538	0,0083347387763253504
1	1	0	0	0	0	2	184087,22	0,100000001	3,06344938	0,00027782468073483974	0,10001686941568362	0,000306396629	-0,3534096351228455	0,013186188650741398	0,02111466186833257
1	1	0	0	0	0	2	184547,22	0,100000001	3,26394582	0,00027782516017142266	0,10001704201282646	0,000326450216	-0,34062969268379437	0,012709351815525043	0,033894604307383712
1	1	0	0	0	0	2	185007,22	0,100000001	3,43154192	0,00027782498715859318	0,1000169797282176	0,00034321245	-0,32784974628020525	0,012232514832386445	0,046674550710972819
1	1	0	0	0	0	2	185467,22	0,100000001	3,53366137	0,00027782409678358166	0,10001665919326362	0,000353425014	-0,31506981811134304	0,011755678529610026	0,059454478879835059
1	1	0	0	0	0	2	185927,22	0,100000001	3,60007358	0,00027782422134156029	0,10001670403412891	0,000360067497	-0,30228991894060864	0,011278843308792741	0,072234378050569498
1	1	0	0	0	0	2	186387,22	0,100000001	3,64763904	0,00027782396680489184	0,10001661240094259	0,000364824489	-0,2895100083393319	0,010802007661486555	0,085014288651846387
1	1	0	0	0	0	2	186847,22	0,100000001	3,68500781	0,00027782375671342013	0,10001653676802461	0,000368561712	-0,27673010755390835	0,010325172380423051	0,097794189437269824
1	1	0	0	0	0	2	187307,22	0,100000001	3,71639967	0,00027782345500878163	0,10001642815437174	0,000371701026	-0,2639502344570513	0,0098483381324571878	0,11057406253412698
1	1	0	0	0	0	2	187767,22	0,100000001	3,74403	0,0002778236705739465	0,10001650575781898	0,000374464784	-0,25117034328057251	0,0093715032099163328	0,1233539537106057
1	1	0	0	0	0	2	188227,22	0,100000001	3,76898718	0,00027782445306041174	0,10001678745290237	0,00037696198	-0,2383904579622767	0,0088946685059521562	0,13613383902890152
1	1	0	0	0	0	2	188687,22	0,100000001	3,79276037	0,0002778231943531169	0,10001633431834712	0,000379337987	-0,22561055558011859	0,0084178331653123379	0,14891374141105965
1	1	0	0	0	0	2	189147,22	0,100000001	3,8157506	0,00027782371281294362	0,10001652096385554	0,000381638092	-0,21283066452626944	0,0079409982473469568	0,16169363246490877
1	1	0	0	0	0	2	189607,22	0,100000001	3,83812976	0,00027782359240824979	0,10001647761817254	0,000383876206	-0,2000507788796672	0,0074641635311332301	0,17447351811151101
1	1	0	0	0	0	2	190067,22	0,100000001	3,86098647	0,00027782392561435702	0,10001659757700976	0,000386162719	-0,18727088375628982	0,006987328461328279	0,18725341323488838
1	1	0	0	0	0	2	190527,22	0,100000001	3,88412929	0,00027782397486973146	0,10001661530428438	0,000388477463	-0,17449100988660752	0,0065104941845272666	0,20003328710457072
1	1	0	0	0	0	2	190987,22	0,100000001	3,90752077	0,00027782399933992163	0,10001662411355149	0,000390817033	-0,1617111345756575	0,0060336598539506202	0,21281316241552074
1	1	0	0	0	0	2	191447,22	0,100000001	3,93140841	0,00027782371565368438	0,10001652198652208	0,000393205788	-0,14893125250823424	0,0055568252712808717	0,22559304448294397
1	1	0	0	0	0	2	191907,22	0,100000001	3,95605993	0,00027782312762033606	0,10001631029454979	0,000395670504	-0,13615137279417861	0,0050799907764184326	0,23837292419699962
1	1	0	0	0	0	2	192367,22	0,100000001	3,98147511	0,0002778225762744745	0,10001611181007067	0,000398211647	-0,12337152799226624	0,0046031575841750003	0,25115276899891197
1	1	0	0	0	0	2	192827,22	0,100000001	4,00776911	0,00027782293872493837	0,10001624229221725	0,000400841993	-0,11059167210824323	0,0041263239784431187	0,26393262488293494
1	1	0	0	0	0	2	193287,22	0,100000001	4,0345211	0,0002778227866085039	0,10001618753030942	0,000403517421	-0,097811812307480627	0,0036494902265724173	0,27671248468369747
1	1	0	0	0	0	2	193747,22	0,100000001	4,06178856	0,00027782314054626557	0,10001631494788368	0,000406245119	-0,085031950762085914	0,0031726564096071462	0,28949234622909222
1	1	0	0	0	0	2	194207,22	0,100000001	4,08888435	0,00027782356111125818	0,10001646635125731	0,000408955762	-0,072252059997881766	0,0026958215024488102	0,30227223699329606
1	1	0	0	0	0	2	194667,22	0,100000001	4,11487246	0,00027782288913718525	0,10001622444062894	0,000411554007	-0,059472191143069786	0,0022189874127593526	0,31505210584810803
1	1	0	0	0	0	2	195127,22	0,100000001	4,1396575	0,00027782383398546112	0,10001656458595502	0,000414034323	-0,046692320465414022	0,0017421532550571434	0,32783197652576365
1	1	0	0	0	0	2	195587,22	0,100000001	4,16323996	0,00027782319609903629	0,100016334946878	0,000416391995	-0,033912445642439814	0,0012653189426875294	0,34061185134873805
1	1	0	0	0	0	2	196047,22	0,100000001	4,18483591	0,00027782241721699635	0,1000160545493875	0,000418550771	-0,021132617126342288	0,00078848635808974464	0,35339167986483584
1	1	0	0	0	0	2	196404,09	0,100000001	4,19994116	0,00019079156259281766	0,10001594747873656	0,000420061086	-0,011218057435063397	0,0004185608057408503	0,36330623955611456