File: Experimentelles/Rohdaten/Batteriemessungen/AlteZelle/Studenten_Batterietests/Sonstige/ECLab-Export/LiCoO2 vs Li_05_GCPL_C01_loop6.mpt
EC-Lab ASCII FILE
Nb header lines : 3
mode	ox/red	error	control changes	Ns changes	counter inc.	Ns	time/s	control/V/mA	Ewe/V	dq/mA.h	<I>/mA	P/W	(Q-Qo)/mA.h	x	Capacity/mA.h
1	0	0	1	1	0	1	221214,67	-0,100000001	4,19595051	0	0	0	0	0	0
1	0	0	1	0	0	1	221614,67	-0,100000001	3,80790353	-0,0002777146639873584	-0,099977263392787187	0,000380703772	-0,011107220017222669	0,00041442531265871949	0,011107220017222669
1	0	0	1	0	0	1	222014,67	-0,100000001	3,7633934	-0,00027771474961812298	-0,099977294219857626	0,000376253884	-0,022215803427563546	0,00082890149534778086	0,022215803427563546
1	0	0	1	0	0	1	222414,67	-0,100000001	3,72858334	-0,0002777154694340295	-0,099977553353543411	0,000372774637	-0,033324422004019411	0,0012433789901318738	0,033324422004019411
1	0	0	1	0	0	1	222814,67	-0,100000001	3,6980505	-0,00027771623697918323	-0,09997782967441111	0,000369723071	-0,044433081362329626	0,001657858006541784	0,044433081362329626
1	0	0	1	0	0	1	223214,67	-0,100000001	3,66931272	-0,00027771696391825875	-0,099978091367781773	0,000366850873	-0,055541738397399379	0,0020723369362684694	0,055541738397399379
1	0	0	1	0	0	1	223614,67	-0,100000001	3,64114761	-0,00027771701354492042	-0,099978109233377178	0,000364035048	-0,066650423347840909	0,0024868169075552083	0,066650423347840909
1	0	0	1	0	0	1	224014,67	-0,100000001	3,61235261	-0,00027771683598806464	-0,099978045312919091	0,000361155951	-0,077759099631988518	0,0029012965554908691	0,077759099631988518
1	0	0	1	0	0	1	224414,67	-0,100000001	3,58223987	-0,00027771554886425536	-0,09997758194842025	0,000358143676	-0,088867739561057075	0,0033157748469696506	0,088867739561057075
1	0	0	1	0	0	1	224814,67	-0,100000001	3,55052328	-0,00027771496632405456	-0,099977372233980774	0,000354971999	-0,099976358595985677	0,0037302523588599776	0,099976358595985677
1	0	0	1	0	0	1	225214,67	-0,100000001	3,51720262	-0,00027771486183504266	-0,099977334617942374	0,000351640541	-0,11108496627587469	0,0041447294470785114	0,11108496627587469
1	0	0	1	0	0	1	225614,67	-0,100000001	3,48097968	-0,00027771373901640374	-0,099976930403295616	0,000348017667	-0,12219353149466606	0,0045592049510164006	0,12219353149466606
1	0	0	1	0	0	1	226014,67	-0,100000001	3,44204521	-0,00027771567062619661	-0,099977625782712243	0,000344127504	-0,13330211356031032	0,004973681083533024	0,13330211356031032
1	0	0	1	0	0	1	226414,67	-0,100000001	3,4001317	-0,00027771467927719155	-0,099977268897126259	0,000339935883	-0,14441072631504525	0,0053881583611008813	0,14441072631504525
1	0	0	1	0	0	1	226814,67	-0,100000001	3,35426593	-0,00027771519412679808	-0,09997745424295561	0,000335350982	-0,15551934606767968	0,0058026358997697779	0,15551934606767968
1	0	0	1	0	0	1	227214,67	-0,100000001	3,30374074	-0,00027771542535763648	-0,099977537486044403	0,000330299867	-0,16662793810096506	0,0062171124041924915	0,16662793810096506
1	0	0	1	0	0	1	227614,67	-0,100000001	3,2485373	-0,00027771488003556931	-0,099977341170130944	0,000324780121	-0,17773655498082765	0,006631589835674409	0,17773655498082765
1	0	0	1	0	0	1	228014,67	-0,100000001	3,18749094	-0,00027771499053181875	-0,099977380948774541	0,00031867699	-0,18884516664744976	0,0070460670726433152	0,18884516664744976
1	0	0	1	0	0	1	228414,67	-0,100000001	3,11949396	-0,00027771414692327382	-0,099977077249745856	0,000311877899	-0,1999537506138519	0,0074605432760797696	0,1999537506138519
1	0	0	1	0	0	1	228814,67	-0,100000001	3,04309511	-0,00027771497496590019	-0,099977375345044723	0,000304240675	-0,21106235413437734	0,0078750202091068544	0,21106235413437734
1	0	0	1	0	0	1	229214,67	-0,100000001	2,95659518	-0,0002777143659351601	-0,099977156098668134	0,000295591977	-0,22217095270527872	0,0082894969574568115	0,22217095270527872
1	0	0	1	0	0	1	229614,67	-0,100000001	2,85802746	-0,00027771461803631648	-0,099977246850414694	0,000285737711	-0,23327953266434304	0,0087039730113741056	0,23327953266434304
1	0	0	1	0	0	1	230014,67	-0,100000001	2,74956822	-0,00027771524110560618	-0,099977471155323878	0,000274894875	-0,24438812651258928	0,0091184495835154496	0,24438812651258928
1	0	0	1	0	0	1	230414,67	-0,100000001	2,63478875	-0,00027771536847121187	-0,099977517006934758	0,000263419643	-0,25549672529566637	0,0095329263397819674	0,25549672529566637
1	0	0	1	0	0	1	230814,67	-0,100000001	2,51825261	-0,0002777145724222064	-0,099977230429337638	0,000251767924	-0,26660532759508627	0,0099474032272479642	0,26660532759508627
1	0	0	1	0	0	1	231214,67	-0,100000001	2,40165901	-0,00027771426235222154	-0,099977118804160538	0,000240110952	-0,27771391121047946	0,010361879417587802	0,27771391121047946
1	0	0	1	0	0	1	231614,67	-0,100000001	2,27553725	-0,00027771551838889718	-0,099977570977293018	0,000227502693	-0,28882251108888333	0,010776356214722437	0,28882251108888333
1	0	0	1	0	0	1	232014,67	-0,100000001	2,08762431	-0,00027771391668253475	-0,099976994363092762	0,000208714409	-0,29993109287109958	0,011190832336663979	0,29993109287109958
1	0	0	1	0	0	1	232414,67	-0,100000001	1,80866671	-0,00027771374247554275	-0,099976931648585472	0,000180824951	-0,3110396334098361	0,01160530691975584	0,3110396334098361
1	0	0	1	0	0	1	232814,67	-0,100000001	1,57295823	-0,00027771426838719184	-0,099977120976749517	0,000157259841	-0,32214820123149606	0,012019782520810258	0,32214820123149606
1	1	0	0	0	0	2	233198,00	0,100000001	2,68116927	0,00027782527793488566	0,10001708440766653	0,000268162723	-0,32223866824056685	0,012023157966552875	0,0052786834269029382
1	1	0	0	0	0	2	233598,00	0,100000001	3,00018787	0,00027782516993871994	0,10001704552905296	0,000300069922	-0,31112566545446304	0,011608516891012186	0,016391686213006989
1	1	0	0	0	0	2	233998,00	0,100000001	3,16472888	0,00027782369097405008	0,10001651310185509	0,00031652514	-0,30001267986203098	0,011193876456990506	0,02750467180543889
1	1	0	0	0	0	2	234398,00	0,100000001	3,33916068	0,00027782456467052304	0,10001682763253616	0,000333972246	-0,28889969722700096	0,01077923613331347	0,038617654440468787
1	1	0	0	0	0	2	234798,00	0,100000001	3,46761227	0,00027782493874223696	0,10001696229833208	0,000346820045	-0,27778671908007728	0,010364595977093718	0,049730632587392307
1	1	0	0	0	0	2	235198,00	0,100000001	3,54819274	0,00027782537775817846	0,1000171203440463	0,00035488003	-0,26667371174197197	0,0099499547317117338	0,060843639925497702
1	1	0	0	0	0	2	235598,00	0,100000001	3,60330057	0,00027782461224744717	0,10001684476022614	0,000360390753	-0,25556072265916867	0,0095353141674596096	0,071956629008301005
1	1	0	0	0	0	2	235998,00	0,100000001	3,64466023	0,00027782610651643744	0,1000173826969785	0,000364529376	-0,24444771870740298	0,0091206730484265062	0,083069632960066611
1	1	0	0	0	0	2	236398,00	0,100000001	3,67817163	0,00027782584127949344	0,10001728721635101	0,000367880741	-0,23333467019881814	0,0087060302669185741	0,09418268146865152
1	1	0	0	0	0	2	236798,00	0,100000001	3,70673776	0,00027782533236717187	0,1000171040032865	0,000370737165	-0,22222164858686848	0,0082913884889602637	0,10529570308060118
1	1	0	0	0	0	2	237198,00	0,100000001	3,73198128	0,00027782535129868323	0,10001711081862952	0,000373261981	-0,21110863753022464	0,0078767471048346048	0,11640871413724502
1	1	0	0	0	0	2	237598,00	0,100000001	3,75527692	0,00027782548701018093	0,10001715967476106	0,000375592121	-0,19999562370840835	0,0074621056175366438	0,1275217279590613
1	1	0	0	0	0	2	237998,00	0,100000001	3,77729344	0,00027782517257415587	0,10001704647780971	0,000377793738	-0,18888261906070883	0,0070474644725373158	0,13863473260676082
1	1	0	0	0	0	2	238398,00	0,100000001	3,7982595	0,00027782541988210541	0,10001713550865765	0,000379891047	-0,17776961883430794	0,006632823492502583	0,1497477328331617
1	1	0	0	0	0	2	238798,00	0,100000001	3,81930208	0,00027782574598408406	0,10001725290535158	0,000381996098	-0,1666565924032023	0,0062181815347350835	0,16086075926426736
1	1	0	0	0	0	2	239198,00	0,100000001	3,84000111	0,00027782456406371459	0,10001682741408515	0,000384064741	-0,15554358640065027	0,0058035403391843853	0,17197376526681936
1	1	0	0	0	0	2	239598,00	0,100000001	3,86102462	0,00027782536913040614	0,10001711723804875	0,00038616854	-0,14443057966326874	0,0053888991162162093	0,18308677200420093
1	1	0	0	0	0	2	239998,00	0,100000001	3,88258266	0,00027782540541597536	0,10001713030085163	0,000388324785	-0,13331757521750312	0,0049742579787513069	0,19419977644996653
1	1	0	0	0	0	2	240398,00	0,100000001	3,90477109	0,00027782486782347165	0,10001693676758058	0,000390543253	-0,12220457537934672	0,0045596170132024966	0,20531277628812294
1	1	0	0	0	0	2	240798,00	0,100000001	3,92760849	0,00027782553192062512	0,1000171758425184	0,000392828311	-0,11109157364462672	0,0041449759768903501	0,21642577802284278
1	1	0	0	0	0	2	241198,00	0,100000001	3,95162988	0,00027782472207148867	0,10001688429687491	0,000395229697	-0,099978596116445773	0,0037303358437567219	0,22753875555102371
1	1	0	0	0	0	2	241598,00	0,100000001	3,97712159	0,00027782447550238835	0,10001679553201269	0,00039777896	-0,088865626907797133	0,0033156960210360294	0,23865172475967216
1	1	0	0	0	0	2	241998,00	0,100000001	4,00433207	0,00027782363263724582	0,10001649210060885	0,000400499237	-0,077752650603781798	0,0029010559335776659	0,24976470106368755
1	1	0	0	0	0	2	242398,00	0,100000001	4,03276443	0,00027782427640549014	0,10001672385714054	0,000403343874	-0,066639681121344205	0,0024864161006415392	0,26087767054612522
1	1	0	0	0	0	2	242798,00	0,100000001	4,06278133	0,00027782447581821018	0,10001679564570851	0,000406346371	-0,055526697097247514	0,0020717757251365603	0,27199065457022205
1	1	0	0	0	0	2	243198,00	0,100000001	4,09375334	0,00027782440444082016	0,10001676994985214	0,000409443979	-0,044413706637958957	0,0016571351095259206	0,28310364502951053
1	1	0	0	0	0	2	243598,00	0,100000001	4,12443876	0,00027782477904235328	0,10001690480638294	0,000412513589	-0,033300721548096032	0,0012424946942557706	0,29421663011937363
1	1	0	0	0	0	2	243998,00	0,100000001	4,15426493	0,00027782418381422758	0,10001669052429123	0,00041549583	-0,022187737662148835	0,00082785432390533517	0,30532961400532102
1	1	0	0	0	0	2	244398,01	0,100000001	4,18193388	0,00027782484835800198	0,10001692976001258	0,000418264186	-0,01107474518163695	0,00041321363288013549	0,31644260648583277
1	1	0	0	0	0	2	244700,47	0,100000001	4,19986486	6,849487444965376E-005	0,10001683676161101	0,000420057186	-0,002671502909343135	9,9677365421455347E-005	0,32484584875812666