File: Experimentelles/Rohdaten/Batteriemessungen/AlteZelle/Studenten_Batterietests/Sonstige/ECLab-Export/LiCoO2 vs Li_02_CV_C01_loop5.mpt
EC-Lab ASCII FILE
Nb header lines : 3
mode	ox/red	error	control changes	counter inc.	time/s	control/V	Ewe/V	<I>/mA	cycle number	(Q-Qo)/C	P/W
2	0	0	1	0	7200,62	3,10406637	3,10440207	-0,59053277969360346	6	0	0,00183325121
2	0	0	0	0	7206,40	3,04626036	3,0463295	-0,51135928882286131	6	-0,00297589228	0,0015577689
2	0	0	1	0	7212,20	2,98825526	2,98822737	-0,51248502731323309	6	-0,00594724389	0,00153142179
2	0	0	1	0	7218,00	2,93024969	2,93039584	-0,5142139866948128	6	-0,00892602	0,00150685047
2	0	0	0	0	7223,80	2,87224436	2,87240386	-0,51673584431409747	6	-0,0119176451	0,00148427405
2	0	0	1	0	7229,60	2,81423903	2,81454229	-0,52014409253994739	6	-0,0149278687	0,00146396749
2	0	0	0	0	7235,40	2,75623369	2,75637031	-0,52344622105353619	6	-0,0179570578	0,00144281157
2	0	0	0	0	7241,20	2,69822812	2,69864869	-0,52635816639909907	6	-0,0210052431	0,00142045575
2	0	0	1	0	7247,00	2,64022255	2,64056659	-0,52864841620127482	6	-0,0240688957	0,00139593135
2	0	0	0	0	7252,80	2,58221722	2,5824945	-0,52851557452231514	6	-0,0271396413	0,00136488851
2	0	0	0	0	7258,60	2,52421165	2,52455282	-0,5258603780530384	6	-0,030202141	0,00132756226
2	0	0	1	0	7264,40	2,46620631	2,46655083	-0,51812743007515571	6	-0,0332346335	0,00127798761
2	0	0	0	0	7270,21	2,40820098	2,4085288	-0,505461587260168	6	-0,03620876	0,00121741882
2	0	0	0	0	7276,01	2,35019588	2,35041547	-0,48728669793703008	6	-0,0390928946	0,00114532618
2	0	0	1	0	7281,81	2,29219007	2,29252481	-0,46615514531731603	6	-0,0418621711	0,00106867228
2	0	0	0	0	7287,61	2,23418474	2,23463321	-0,44395028039192307	6	-0,0445040055	0,000992065994
2	0	0	1	0	7293,41	2,17617917	2,1764009	-0,42406437809889395	6	-0,0470229872	0,000922934094
2	0	0	1	0	7299,21	2,11817408	2,11847901	-0,40792588780944429	6	-0,0494372323	0,000864182424
2	0	0	0	0	7305,01	2,0601685	2,060467	-0,39705325678611827	6	-0,0517722853	0,000818115135
2	0	0	1	0	7310,81	2,00216317	2,0025053	-0,39036874845623968	6	-0,0540559366	0,000781715498
2	0	0	1	0	7316,61	1,94415784	1,94439304	-0,38830853540760749	6	-0,0563147143	0,000755024434
2	0	0	0	0	7322,41	1,88615227	1,88638091	-0,38988208902689338	6	-0,0585733391	0,000735466136
2	0	0	1	0	7328,21	1,82814682	1,82848942	-0,39449812859917619	6	-0,0608507171	0,000721335644
2	0	0	0	0	7334,01	1,77014148	1,77021694	-0,40325692063197581	6	-0,0631666109	0,000713852234
2	0	0	0	0	7339,81	1,71213615	1,71242559	-0,41480698809027629	6	-0,0655418411	0,000710326072
2	0	0	1	0	7345,61	1,65413058	1,65435326	-0,42938609033202016	6	-0,0679949373	0,000710356282
2	0	0	0	0	7351,41	1,59612536	1,59654188	-0,44340067387869018	6	-0,0705280229	0,000707907719
2	0	0	0	0	7357,21	1,53811991	1,53832948	-0,46076480283712582	6	-0,0731509626	0,000708808075
2	0	0	1	0	7363,01	1,48011446	1,48064828	-0,48266497471680192	6	-0,0758879185	0,000714657072
2	0	0	0	0	7368,81	1,42210901	1,42245591	-0,5116090088461833	6	-0,0787711814	0,000727741281
2	0	0	1	0	7374,61	1,36410367	1,36451423	-0,54971327430879136	6	-0,0818473324	0,000750091567
2	0	0	1	0	7380,42	1,30609822	1,30655229	-0,60364556514347686	6	-0,0851856843	0,00078869448
2	0	0	0	0	7386,22	1,24809277	1,24833989	-0,6813216645581033	6	-0,0889029056	0,000850521028
2	0	0	1	0	7392,02	1,19008744	1,19031787	-0,78678067990889382	6	-0,0931524038	0,000936519122
2	0	0	1	0	7397,82	1,13208199	1,13239598	-0,9167695088932919	6	-0,0980857834	0,00103814609
2	0	0	0	0	7403,66	1,07367659	1,07378256	-1,068882239672047	6	-0,103876121	0,00114774716
2	0	0	1	0	7409,46	1,01567113	1,0160414	-1,2559461891651189	6	-0,11059653	0,0012760933
2	1	0	0	0	7415,21	1,04177356	1,042045	-0,90562299080193037	6	-0,117089942	0,00094369991
2	1	0	1	0	7421,01	1,09977889	1,10011709	-0,59365727504094502	6	-0,121360041	0,000653092517
2	1	0	0	0	7426,85	1,15818441	1,15837967	-0,40172744976977536	6	-0,124217719	0,000465352903
2	1	0	1	0	7432,65	1,21618974	1,21635151	-0,28053937293589203	6	-0,126169458	0,000341234496
2	1	0	1	0	7438,45	1,27419531	1,27436352	-0,19730884108381952	6	-0,127537102	0,000251443184
2	1	0	0	0	7444,25	1,33220077	1,33247578	-0,13625622796826109	6	-0,128491566	0,00018155812
2	1	0	1	0	7450,05	1,3902061	1,3903873	-0,088516824587714035	6	-0,129134849	0,000123072663
2	1	0	1	0	7455,87	1,44841146	1,44859982	-0,050124647396539104	6	-0,12953192	7,26105573E-005
2	1	0	0	0	7461,69	1,50661695	1,50694275	-0,01651946607550303	6	-0,129720658	2,48938904E-005
2	1	0	1	0	7467,57	1,5654223	1,56574631	0,014662036541267312	6	-0,129722476	2,29570287E-005
2	1	0	0	0	7473,37	1,62342787	1,6239289	0,044799199919604237	6	-0,129547015	7,2750714E-005
2	1	0	0	0	7479,18	1,6814332	1,68151975	0,07594993632907671	6	-0,129195154	0,000127711319
2	1	0	1	0	7485,02	1,73983872	1,74004316	0,10728926234878578	6	-0,128657356	0,000186687947
2	1	0	0	0	7490,82	1,79784405	1,798105	0,14013933630970632	6	-0,127935916	0,000251985242
2	1	0	0	0	7496,62	1,85584962	1,85617721	0,17299188991698202	6	-0,127024457	0,000321103609
2	1	0	1	0	7502,42	1,91385484	1,91421914	0,20409723410072323	6	-0,125926852	0,000390686822
2	1	0	0	0	7508,22	1,97186041	1,97231126	0,2314847582795967	6	-0,124658249	0,000456559996
2	1	0	1	0	7514,02	2,02986598	2,03023291	0,25463718610505158	6	-0,12324255	0,000516972796
2	1	0	1	0	7519,82	2,08787107	2,08827496	0,27282002964057072	6	-0,121707849	0,000569723255
2	1	0	0	0	7525,62	2,14587641	2,14627719	0,2864999557690071	6	-0,120081544	0,000614908291
2	1	0	1	0	7531,42	2,20388198	2,20413876	0,29632172663696064	6	-0,118386492	0,000653134193
2	1	0	1	0	7537,22	2,26188731	2,26226091	0,30383056743691373	6	-0,116641648	0,000687344
2	1	0	0	0	7543,02	2,31989264	2,32015252	0,30966683741037926	6	-0,114858866	0,000718474272
2	1	0	1	0	7548,82	2,37789822	2,37797403	0,3140267482958743	6	-0,113047443	0,000746747479
2	1	0	0	0	7554,62	2,4359045	2,4360764	0,31776734206872435	6	-0,11121203	0,000774105545
2	1	0	0	0	7560,42	2,49390912	2,4941082	0,32145368183652589	6	-0,109354772	0,000801740272
2	1	0	1	0	7566,22	2,55191445	2,55227089	0,32515999247940774	6	-0,107477315	0,000829896366
2	1	0	0	0	7572,02	2,60991979	2,61025238	0,32937696094935155	6	-0,105576284	0,000859757012
2	1	0	0	0	7577,82	2,66792512	2,66780329	0,3361354093843447	6	-0,103644319	0,000896743149
2	1	0	1	0	7583,62	2,72593069	2,72612596	0,3459547949023545	6	-0,101664335	0,00094311632
2	1	0	0	0	7589,43	2,78393602	2,78412771	0,3599882210449641	6	-0,0996162742	0,00100225315
2	1	0	0	0	7595,23	2,84194088	2,84207964	0,38064331246472397	6	-0,0974712148	0,0010818186
2	1	0	1	0	7601,03	2,89994693	2,90003157	0,4100358569994551	6	-0,0951740518	0,00118911697
2	1	0	0	0	7606,83	2,9579525	2,95807362	0,43297276832163334	6	-0,092726253	0,00128076528
2	1	0	1	0	7612,63	3,01595759	3,01618576	0,4596183776545031	6	-0,0901367888	0,00138629437
2	1	0	1	0	7618,43	3,07396317	3,07406735	0,48952494934201152	6	-0,0873835012	0,00150483265
2	1	0	0	0	7624,23	3,1319685	3,13222957	0,52420475023487968	6	-0,084442459	0,00164192962
2	1	0	1	0	7630,03	3,18997383	3,19023156	0,56270341714844288	6	-0,0812888816	0,00179515418
2	1	0	0	0	7635,83	3,24797964	3,24822402	0,60438496038751846	6	-0,0779019222	0,0019631777
2	1	0	0	0	7641,63	3,3059845	3,30616522	0,64612312335520896	6	-0,0742726922	0,00213618972
2	1	0	1	0	7647,43	3,36398983	3,36421728	0,68684513199453517	6	-0,0704028532	0,00231069629
2	1	0	0	0	7653,23	3,42199564	3,42224932	0,7253932454623264	6	-0,0663038343	0,00248247664
2	1	0	0	0	7659,03	3,48000073	3,4801507	0,7640538207876169	6	-0,0619812869	0,00265902234
2	1	0	1	0	7664,83	3,53800607	3,53830338	0,80706203418473523	6	-0,0574240237	0,00285563036
2	1	0	0	0	7670,63	3,59601188	3,59627509	0,85777133796363981	6	-0,0525966324	0,00308478181
2	1	0	1	0	7676,43	3,65401721	3,65415692	0,91896906650314496	6	-0,0474445187	0,00335805723
2	1	0	1	0	7682,23	3,71202254	3,71227932	0,99196277620891853	6	-0,0419048518	0,00368244294
2	1	0	0	0	7688,07	3,77042794	3,77074218	1,0794576086724774	6	-0,0358557068	0,00407035649
2	1	0	1	0	7693,88	3,82843351	3,82862377	1,1795827137927213	6	-0,0293072928	0,00451617828
2	1	0	1	0	7699,68	3,88643885	3,88654542	1,2961374300842525	6	-0,0221310109	0,0050374968
2	1	0	0	0	7705,48	3,94444418	3,94446731	1,4327710553382822	6	-0,0142247137	0,0056515187
2	1	0	1	0	7711,28	4,00244999	4,0025897	1,6060929888238499	6	-0,00543075334	0,00642853137
2	1	0	0	0	7717,08	4,06045532	4,06063175	1,8381313638597235	6	0,00453004753	0,00746397441
2	1	0	0	0	7722,88	4,11846066	4,11888409	2,1454189574966733	6	0,0160465222	0,00883673225
2	1	0	1	0	7728,68	4,17646551	4,17682552	2,5437702617297616	6	0,0296013262	0,0106248846
2	0	0	1	1	7734,41	4,16616535	4,16655111	2,1917867670845203	6	0,0440363437	0,00913219154
2	0	0	0	1	7740,21	4,10815954	4,10830784	1,5095760514959658	6	0,0546789914	0,00620180322
2	0	0	1	1	7746,01	4,05015421	4,05025625	0,98415953324486822	6	0,0618422925	0,00398609834
2	0	0	0	1	7751,81	3,99214864	3,99234438	0,58118939942990758	6	0,066324316	0,00232030824
2	0	0	0	1	7757,65	3,93374324	3,93395162	0,27458473636458214	6	0,0687743649	0,0010802031
2	0	0	1	1	7763,45	3,87573791	3,87597966	0,050878328251807712	6	0,0696785897	0,000197203364
2	0	0	0	1	7769,41	3,81613207	3,81611323	-0,11496115258584405	6	0,0694562048	0,000438704767
2	0	0	1	1	7775,21	3,75812674	3,75843191	-0,23667554572845552	6	0,0684180781	0,00088952895
2	0	0	1	1	7781,01	3,7001214	3,70024943	-0,3349992104340345	6	0,0667482391	0,00123958068
2	0	0	0	1	7786,81	3,64211607	3,64217782	-0,41867575282231059	6	0,0645531639	0,00152489159
2	0	0	1	1	7792,61	3,58411074	3,58414531	-0,49111551682775277	6	0,0619047321	0,00176022935
2	0	0	1	1	7798,42	3,52610493	3,52599311	-0,55062794949238534	6	0,058873143	0,00194151036
2	0	0	0	1	7804,22	3,46809983	3,46825194	-0,59526057975987533	6	0,055539757	0,00206451374
2	0	0	1	1	7810,02	3,4100945	3,41020989	-0,6240762838472928	6	0,051993642	0,00212823111
2	0	0	0	1	7815,82	3,35208869	3,35230827	-0,63897354605918272	6	0,048321303	0,00214203633
2	0	0	0	1	7821,62	3,29408336	3,29448676	-0,64248019596561651	6	0,0445970148	0,00211664243
2	0	0	1	1	7827,42	3,23607802	3,23618388	-0,63762588333338406	6	0,0408774763	0,00206347462
2	0	0	0	1	7833,22	3,17807269	3,17810178	-0,62834298967694259	6	0,0372004732	0,00199693791
2	0	0	0	1	7839,02	3,12006736	3,12037086	-0,61615727019185766	6	0,0335865505	0,0019226392
2	0	0	0	1	7840,56	3,10466647	3,105124	-0,6134526783769783	6	0,0326403044	0,00190484663