File: Experimentelles/Rohdaten/Batteriemessungen/AlteZelle/Studenten_Batterietests/Sonstige/ECLab-Export/LiCoO2 vs Li_02_CV_C01_loop6.mpt
EC-Lab ASCII FILE
Nb header lines : 3
mode	ox/red	error	control changes	counter inc.	time/s	control/V	Ewe/V	<I>/mA	cycle number	(Q-Qo)/C	P/W
2	0	0	1	0	7840,73	3,10456657	3,10496354	-0,70543074607849126	7	0	0,00219033682
2	0	0	0	0	7846,51	3,0467608	3,04703116	-0,5988810885076727	7	-0,00351727731	0,00182480935
2	0	0	1	0	7852,31	2,98875523	2,98887897	-0,58956857320542259	7	-0,00696648099	0,00176214916
2	0	0	1	0	7858,11	2,93075013	2,93104553	-0,5827448846769609	7	-0,0103679569	0,00170805177
2	0	0	0	0	7863,91	2,87274456	2,87297535	-0,57749600615352486	7	-0,0137339849	0,00165913184
2	0	0	1	0	7869,71	2,81473899	2,81475282	-0,57449919202675501	7	-0,0170767456	0,0016170732
2	0	0	0	0	7875,51	2,75673342	2,75695133	-0,5718740082035465	7	-0,0204036217	0,00157662877
2	0	0	0	0	7881,31	2,69872808	2,6990397	-0,5703429677523664	7	-0,0237195697	0,00153937831
2	0	0	1	0	7887,11	2,64072275	2,641078	-0,56883891501153626	7	-0,0270267818	0,00150234799
2	0	0	0	0	7892,91	2,58271718	2,5828855	-0,56579945438231149	7	-0,0303215124	0,00146139518
2	0	0	0	0	7898,71	2,52471161	2,5251143	-0,56078874982846694	7	-0,033594314	0,00141605572
2	0	0	1	0	7904,51	2,46670651	2,46707201	-0,55187525274232205	7	-0,0368263945	0,00136151596
2	0	0	0	0	7910,31	2,40870094	2,40881944	-0,53740344739829562	7	-0,0399908163	0,00129450788
2	0	0	1	0	7916,11	2,35069561	2,35084772	-0,51694089500233709	7	-0,0430541784	0,0012152493
2	0	0	1	0	7921,91	2,29269004	2,29306626	-0,49251031409949107	7	-0,0459862873	0,00112935877
2	0	0	0	0	7927,72	2,23468471	2,23495412	-0,46677116816863328	7	-0,0487709194	0,00104321213
2	0	0	1	0	7933,52	2,17667913	2,17683172	-0,44319300819188358	7	-0,051411029	0,000964756589
2	0	0	1	0	7939,32	2,11867428	2,11903048	-0,42394065375750323	7	-0,0539264083	0,000898343162
2	0	0	0	0	7945,12	2,06066871	2,06093836	-0,41032246888304691	7	-0,0563467927	0,000845649338
2	0	0	1	0	7950,92	2,00266314	2,00301647	-0,40244838455691814	7	-0,0587045364	0,000806110736
2	0	0	0	0	7956,72	1,94465768	1,94478405	-0,39930657545725626	7	-0,0610295646	0,000776565052
2	0	0	0	0	7962,52	1,88665235	1,88704276	-0,40014178430040736	7	-0,0633494854	0,000755084679
2	0	0	1	0	7968,32	1,82864702	1,8288101	-0,40420465248947398	7	-0,0656835511	0,000739213545
2	0	0	0	0	7974,12	1,77064157	1,77095878	-0,41202650777995494	7	-0,0680518225	0,000729681982
2	0	0	0	0	7979,92	1,71263599	1,71299684	-0,4225824320067968	7	-0,0704745427	0,000723882345
2	0	0	1	0	7985,72	1,65463066	1,65498495	-0,43586395044500749	7	-0,0729686469	0,000721348275
2	0	0	0	0	7991,52	1,59662533	1,59702301	-0,44884428335353779	7	-0,0755377188	0,000716814655
2	0	0	1	0	7997,32	1,5386194	1,53885055	-0,4658646671906048	7	-0,0781923383	0,000716896087
2	0	0	1	0	8003,12	1,48061466	1,48080862	-0,48683104772741715	7	-0,0809558555	0,000720903627
2	0	0	0	0	8008,92	1,42260909	1,42285693	-0,5151226716116071	7	-0,0838613734	0,00073294586
2	0	0	1	0	8014,72	1,36460364	1,36480474	-0,55290100940813504	7	-0,0869572684	0,000754601904
2	0	0	1	0	8020,52	1,30659819	1,30698335	-0,60811524325981555	7	-0,0903180614	0,000794796506
2	0	0	0	0	8026,32	1,24859285	1,24897146	-0,68737806705758157	7	-0,094065465	0,000858515617
2	0	0	1	0	8032,13	1,1905874	1,19106972	-0,79277369535217626	7	-0,0983507112	0,00094424875
2	0	0	1	0	8037,93	1,13258207	1,13294744	-0,91958220861852173	7	-0,10331241	0,00104183832
2	0	0	0	0	8043,77	1,07417655	1,07442427	-1,0672751997287122	7	-0,109108083	0,0011467064
2	0	0	1	0	8049,57	1,01617122	1,01646245	-1,2451998951534389	7	-0,115797207	0,00126569893
2	1	0	0	0	8055,32	1,04127347	1,04130316	-0,88000334644069517	7	-0,122189127	0,000916350284
2	1	0	1	0	8061,12	1,09927893	1,09961581	-0,56878613075241536	7	-0,126308426	0,000625446206
2	1	0	0	0	8066,96	1,15768433	1,15807891	-0,3809922359262905	7	-0,129032597	0,000441219076
2	1	0	0	0	8072,76	1,21568978	1,21590054	-0,26174895100606045	7	-0,130868807	0,000318260689
2	1	0	1	0	8078,56	1,27369523	1,27374196	-0,1802429403566449	7	-0,132133096	0,000229582991
2	1	0	0	0	8084,36	1,33170056	1,33175397	-0,12053519258430878	7	-0,132992759	0,000160523225
2	1	0	1	0	8090,16	1,38970602	1,3900466	-0,074205624987371264	7	-0,133548081	0,000103149279
2	1	0	1	0	8096,00	1,44811141	1,44839931	-0,036452659425170618	7	-0,133864492	5,27980083E-005
2	1	0	0	0	8101,84	1,50651681	1,50680232	-0,0039655217818411334	7	-0,133978441	5,97525741E-006
2	1	0	1	0	8107,68	1,56492233	1,56536543	0,024912757158745082	7	-0,133914635	3,89975685E-005
2	1	0	1	0	8113,48	1,62292767	1,62343764	0,052599754106874253	7	-0,133687243	8,53924212E-005
2	1	0	0	0	8119,28	1,68093312	1,68117893	0,080185080024723904	7	-0,133299634	0,000134805465
2	1	0	1	0	8125,12	1,73933876	1,73952186	0,10832964714306064	7	-0,132745102	0,000188441787
2	1	0	0	0	8130,92	1,79734397	1,7978847	0,1376917040518797	7	-0,132027686	0,000247553806
2	1	0	0	0	8136,73	1,85534954	1,85546529	0,16651217643326835	7	-0,131141067	0,000308957562
2	1	0	1	0	8142,53	1,91335487	1,91363776	0,19490143877919741	7	-0,130088031	0,000372970739
2	1	0	0	0	8148,33	1,97136021	1,97158968	0,21961675786102819	7	-0,128881142	0,000432994129
2	1	0	0	0	8154,13	2,02936578	2,02970171	0,24080782569944813	7	-0,127540544	0,000488768041
2	1	0	1	0	8159,93	2,08737087	2,08760333	0,25768951117061123	7	-0,12608926	0,000537953456
2	1	0	0	0	8165,73	2,14537644	2,14556527	0,27151510367790886	7	-0,124549858	0,000582553388
2	1	0	1	0	8171,53	2,20338178	2,20359731	0,2817598469555369	7	-0,122940958	0,000620885228
2	1	0	1	0	8177,33	2,26138735	2,26169968	0,28998732636682688	7	-0,121278927	0,000655864249
2	1	0	0	0	8183,13	2,31939292	2,31947088	0,29609374251837382	7	-0,119574934	0,000686780841
2	1	0	1	0	8188,93	2,37739801	2,37755299	0,30155325254114931	7	-0,117838442	0,000716958835
2	1	0	1	0	8194,73	2,43540359	2,43552494	0,3058959310874343	7	-0,116074547	0,000745017198
2	1	0	0	0	8200,53	2,49340892	2,49366713	0,30998180426346701	7	-0,114285648	0,000772991451
2	1	0	1	0	8206,33	2,55141449	2,55164909	0,31379833111229069	7	-0,1124743	0,000800703245
2	1	0	0	0	8212,13	2,60942006	2,60955954	0,31834786166860685	7	-0,110637628	0,000830747711
2	1	0	0	0	8217,93	2,66742516	2,6676929	0,32531281149325242	7	-0,108768985	0,000867834664
2	1	0	1	0	8223,73	2,72543073	2,72576523	0,3351345617944985	7	-0,106851839	0,000913498108
2	1	0	0	0	8229,53	2,78343606	2,78375697	0,34874707266377805	7	-0,104866855	0,000970827066
2	1	0	0	0	8235,33	2,84144139	2,84165883	0,37026172115777811	7	-0,102784373	0,00105215749
2	1	0	1	0	8241,14	2,89944673	2,89977098	0,4000543879034608	7	-0,100545458	0,00116006611
2	1	0	0	0	8246,94	2,9574523	2,95783305	0,42271555401384653	7	-0,0981573984	0,00125032209
2	1	0	0	0	8252,74	3,01545644	3,01558447	0,44976568762294054	7	-0,0956261605	0,00135630637
2	1	0	1	0	8258,54	3,0734632	3,07370663	0,48166940004254323	7	-0,0929242969	0,00148051046
2	1	0	0	0	8264,34	3,13146853	3,13158798	0,518682717656096	7	-0,0900226906	0,00162430061
2	1	0	1	0	8270,14	3,18947387	3,18939972	0,56053433939814387	7	-0,0868917629	0,00178776809
2	1	0	1	0	8275,94	3,2474792	3,24768233	0,60563606846456691	7	-0,0835070834	0,00196691346
2	1	0	0	0	8281,74	3,30548453	3,30555391	0,65099398434782963	7	-0,0798592865	0,00215189578
2	1	0	1	0	8287,54	3,3634901	3,36361599	0,69364936463534835	7	-0,0759556219	0,00233317004
2	1	0	0	0	8293,34	3,42149544	3,42176843	0,73256797886763981	7	-0,0718155205	0,00250667799
2	1	0	0	0	8299,14	3,47950077	3,47969961	0,77144073011974438	7	-0,0674511567	0,00268438202
2	1	0	1	0	8304,94	3,5375061	3,53775191	0,81476262894769741	7	-0,0628515035	0,002882428
2	1	0	0	0	8310,74	3,59551144	3,59593439	0,86688444328804698	7	-0,0579765067	0,00311725959
2	1	0	0	0	8316,54	3,65351725	3,65375614	0,93078191019594675	7	-0,0527637117	0,00340085011
2	1	0	1	0	8322,38	3,71192241	3,71205831	1,0092800740773456	7	-0,0471039489	0,00374650653
2	1	0	0	0	8328,18	3,76992774	3,77012062	1,0998756460224541	7	-0,0409904942	0,00414666394
2	1	0	1	0	8333,98	3,82793355	3,82796216	1,2054442306980491	7	-0,0343081355	0,00461439509
2	1	0	1	0	8339,78	3,88593888	3,88606405	1,3268123681967462	7	-0,026967736	0,00515607791
2	1	0	0	0	8345,58	3,94394422	3,94393611	1,4681854387745216	7	-0,0188683067	0,00579042966
2	1	0	1	0	8351,39	4,00194931	4,00220823	1,6464516799896883	7	-0,00985458214	0,00658944249
2	1	0	1	0	8357,19	4,05995464	4,0599885	1,882843916381617	7	0,000353381649	0,00764432456
2	1	0	0	0	8362,99	4,11796045	4,11814213	2,1940687571962698	7	0,0121423258	0,00903548673
2	1	0	1	0	8368,79	4,17596579	4,17632437	2,5986828934401229	7	0,0259976331	0,0108529422
2	0	0	0	1	8374,52	4,16666508	4,16698265	2,2404689114164499	7	0,040766269	0,00933599472
2	0	0	0	1	8380,32	4,10865974	4,10883904	1,5306650521233712	7	0,0516052097	0,00628925627
2	0	0	1	1	8386,12	4,05065441	4,05078745	0,98522388469427776	7	0,0588294566	0,00399093237
2	0	0	0	1	8391,92	3,9926486	3,99268508	0,56745859297613421	7	0,0632739291	0,00226568338
2	0	0	0	1	8397,76	3,93424439	3,93429422	0,24876063023410387	7	0,0656074807	0,000978697557
2	0	0	1	1	8403,60	3,87583804	3,87602949	0,011713064561869629	7	0,0663282722	4,5400182E-005
2	0	0	0	1	8409,44	3,81743217	3,81772685	-0,16482154815457805	7	0,0658533648	0,000629243674
2	0	0	1	1	8415,24	3,75942683	3,75956464	-0,30116581536519059	7	0,0644840375	0,00113225239
2	0	0	1	1	8421,04	3,7014215	3,70161295	-0,41348864774530189	7	0,0623991154	0,00153057498
2	0	0	0	1	8426,84	3,64341617	3,64367127	-0,51016532722860666	7	0,0597098656	0,00185887469
2	0	0	1	1	8432,64	3,58541083	3,58556914	-0,5943454490043209	7	0,0564958118	0,00213106675
2	0	0	1	1	8438,44	3,52740574	3,52752542	-0,66256045445178995	7	0,0528391562	0,00233719894
2	0	0	0	1	8444,24	3,46939993	3,46938467	-0,71208357267702605	7	0,0488398187	0,00247049192
2	0	0	1	1	8450,05	3,4113946	3,41169333	-0,74142097045356966	7	0,0446111001	0,00252950098
2	0	0	0	1	8455,85	3,35338926	3,35361123	-0,7528673233464343	7	0,0402653776	0,00252482435
2	0	0	0	1	8461,65	3,29538345	3,29553914	-0,74926786512757286	7	0,0359002762	0,00246924162
2	0	0	1	1	8467,45	3,23737812	3,23758745	-0,73541688841457242	7	0,031588424	0,00238097645
2	0	0	0	1	8473,25	3,17937279	3,17942524	-0,71551006954784141	7	0,0273764804	0,00227491069
2	0	0	0	1	8479,05	3,12136817	3,12161255	-0,6937024721646345	7	0,0232862644	0,00216547027
2	0	0	0	1	8480,67	3,10516667	3,10528445	-0,68774515106564467	7	0,0221669022	0,00213564443