File: Experimentelles/Rohdaten/Batteriemessungen/AlteZelle/Studenten_Batterietests/Sonstige/ECLab-Export/S vs Li_05_GCPL_C02_loop6.mpt
EC-Lab ASCII FILE
Nb header lines : 3
mode	ox/red	error	control changes	Ns changes	counter inc.	Ns	time/s	control/V/mA	Ewe/V	dq/mA.h	<I>/mA	P/W	(Q-Qo)/mA.h	x	Capacity/mA.h
1	0	0	1	1	0	1	404756,21	-0,100000001	2,48772621	0	0	0	0	0	0
1	0	0	1	0	0	1	405856,23	-0,100000001	2,1653862	-0,00027771055573804512	-0,099973875077932646	0,000216482047	-0,030546754623166131	0,0011397404855387248	0,030546754623166131
1	0	0	1	0	0	1	406956,25	-0,100000001	2,14827752	-0,00027771036070833606	-0,099973804863933952	0,000214771484	-0,061094878964066253	0,0022795320770877104	0,061094878964066253
1	0	0	1	0	0	1	408056,28	-0,100000001	2,12804055	-0,0002777099170357817	-0,099973645144889766	0,000212747967	-0,091642982561373683	0,0034193228946653619	0,091642982561373683
1	0	0	1	0	0	1	409156,30	-0,100000001	2,11209536	-0,00027771025496141779	-0,099973766800431667	0,000211154125	-0,12219106305006917	0,0045591128500296326	0,12219106305006917
1	0	0	1	0	0	1	410256,32	-0,100000001	2,09403276	-0,00027771102658079734	-0,099974044573404416	0,000209348931	-0,15273919591071907	0,0056989047594619373	0,15273919591071907
1	0	0	1	0	0	1	411356,34	-0,100000001	2,06687236	-0,00027771116312634614	-0,099974093728855501	0,000206633689	-0,18328734214180221	0,006838697167763081	0,18328734214180221
1	0	0	1	0	0	1	412456,36	-0,100000001	2,02702808	-0,00027771037263837123	-0,099973809163319232	0,000202649724	-0,21383546625728365	0,0079784887509013926	0,21383546625728365
1	0	0	1	0	0	1	413556,38	-0,100000001	1,98697388	-0,00027771010479248234	-0,099973712736000525	0,000198645153	-0,24438357450508608	0,0091182797419952653	0,24438357450508608
1	0	0	1	0	0	1	414656,40	-0,100000001	1,96889234	-0,00027771001518724694	-0,099973680481064563	0,000196837413	-0,27493168745291181	0,010258070908453328	0,27493168745291181
1	0	0	1	0	0	1	415756,42	-0,100000001	1,96160626	-0,00027770941254662144	-0,099973463536944307	0,000196108565	-0,30547973597567859	0,011397859671125821	0,30547973597567859
1	0	0	1	0	0	1	416856,44	-0,100000001	1,96082425	-0,00027770963874459264	-0,099973544961990733	0,000196030553	-0,33602779761112134	0,012537648923049882	0,33602779761112134
1	0	0	1	0	0	1	417956,47	-0,100000001	1,95552182	-0,00027770933568353453	-0,099973435864438157	0,000195500237	-0,36657582769135482	0,013677436997606661	0,36657582769135482
1	0	0	1	0	0	1	419056,49	-0,100000001	1,95454907	-0,0002777099111965961	-0,099973643047478733	0,000195403394	-0,39712389036861325	0,014817226288402266	0,39712389036861325
1	0	0	1	0	0	1	420156,51	-0,100000001	1,95113504	-0,00027770925600536995	-0,099973407183178867	0,000195061613	-0,42767197314643827	0,015957016329177037	0,42767197314643827
1	0	0	1	0	0	1	421256,53	-0,100000001	1,94724405	-0,00027771089039618768	-0,099973995549052762	0,000194673761	-0,45822011510201472	0,017096808577953277	0,45822011510201472
1	0	0	1	0	0	1	422356,55	-0,100000001	1,94142663	-0,00027770996038615706	-0,099973660755379699	0,000194091524	-0,48876820900998733	0,018236599034008822	0,48876820900998733
1	0	0	1	0	0	1	423456,57	-0,100000001	1,93065023	-0,00027770929688960314	-0,099973421901219418	0,000193013708	-0,51931623656095782	0,019376387014195395	0,51931623656095782
1	0	0	1	0	0	1	424556,59	-0,100000001	1,92555761	-0,00027770898938965466	-0,09997331119987799	0,000192504376	-0,54986421498445536	0,020516173161369901	0,54986421498445536
1	0	0	1	0	0	1	425656,61	-0,100000001	1,91882467	-0,00027770847617669235	-0,099973126450260403	0,000191830899	-0,58041218633254259	0,021655959044551338	0,58041218633254259
1	0	0	1	0	0	1	426756,64	-0,100000001	1,90986025	-0,00027770925505045386	-0,09997340683941568	0,000190935243	-0,61096017642966835	0,022795745627284608	0,61096017642966835
1	0	0	1	0	0	1	427856,66	-0,100000001	1,89843524	-0,0002777095819889671	-0,099973524532104678	0,000189793267	-0,64150816870773274	0,023935532291391632	0,64150816870773274
1	0	0	1	0	0	1	428956,68	-0,100000001	1,88094497	-0,00027770998856425286	-0,099973670899298867	0,000188044971	-0,67205621433601856	0,025075320946067149	0,67205621433601856
1	0	0	1	0	0	1	430056,70	-0,100000001	1,85876262	-0,00027770991693395706	-0,099973645112888909	0,000185827274	-0,70260427868005555	0,026215110299052506	0,70260427868005555
1	0	0	1	0	0	1	431156,72	-0,100000001	1,8129102	-0,00027771151678222752	-0,09997422104368521	0,000181244279	-0,73315239123353971	0,027354901450797152	0,73315239123353971
1	0	0	1	0	0	1	432256,74	-0,100000001	1,42738008	-0,00027771134040380518	-0,099974157552167245	0,000142701116	-0,76370066102287846	0,028494698469222938	0,76370066102287846
1	0	0	1	0	0	1	433356,76	-0,100000001	1,01463223	-0,00027771094190660448	-0,099974014095937242	0,000101436854	-0,79424890538554406	0,029634494538945363	0,79424890538554406
1	1	0	0	0	0	2	434444,62	0,100000001	2,45575929	0,00027781342878647974	0,10001090865763382	0,000245602714	-0,7655737973223977	0,028564587703016541	0,029448130956257786
1	1	0	0	0	0	2	435544,64	0,100000001	2,43928003	0,00027781273050523469	0,10001065728588286	0,000243953997	-0,73501435572765734	0,027424373849510566	0,060007572550998349
1	1	0	0	0	0	2	436644,66	0,100000001	2,445822	0,00027781316806582944	0,10001081480000694	0,000244608644	-0,70445496308251763	0,02628416182238001	0,090566965196137997
1	1	0	0	0	0	2	437744,68	0,100000001	2,44889283	0,00027781463665349613	0,10001134348138722	0,000244917057	-0,67389558411390758	0,025143950305539155	0,12112634416474811
1	1	0	0	0	0	2	438844,70	0,100000001	2,45633149	0,0002778133442186647	0,10001087821846363	0,000245659874	-0,6433361518184823	0,024003736799003133	0,15168577646017318
1	1	0	0	0	0	2	439944,73	0,100000001	2,45883012	0,00027781201073610118	0,10001039816932699	0,000245908566	-0,61277673366414707	0,022863523820090186	0,18224519461450842
1	1	0	0	0	0	2	441044,75	0,100000001	2,45217347	0,00027781255049506819	0,10001059248114219	0,000245243311	-0,58221729843778829	0,021723310204197091	0,21280462984086774
1	1	0	0	0	0	2	442144,77	0,100000001	2,45638871	0,00027781283400249152	0,1000106945441779	0,000245665142	-0,55165789251592781	0,020583097681694227	0,24336403576272739
1	1	0	0	0	0	2	443244,79	0,100000001	2,4571898	0,00027781268564901418	0,10001064113329738	0,000245745119	-0,52109850792584576	0,019442885955108701	0,27392342035280899
1	1	0	0	0	0	2	444344,81	0,100000001	2,46123338	0,00027781304980028003	0,10001077222755744	0,000246149837	-0,49053910670100864	0,018302673607858096	0,30448282157764627
1	1	0	0	0	0	2	445444,83	0,100000001	2,46577287	0,00027781180733566483	0,10001032495123678	0,000246602751	-0,45997974349435827	0,017162462679117152	0,33504218478429664
1	1	0	0	0	0	2	446544,85	0,100000001	2,46998811	0,00027781145405603782	0,10001019777301987	0,000247024	-0,42942046511079878	0,016022254915239776	0,36560146316785613
1	1	0	0	0	0	2	447644,87	0,100000001	2,47458482	0,00027781189331288138	0,10001035589894603	0,000247484102	-0,39886114171863789	0,014882045472030966	0,39616078656001702
1	1	0	0	0	0	2	448744,89	0,100000001	2,47796082	0,00027781202928101018	0,10001040485002267	0,000247821852	-0,3683017970433223	0,013741835234719043	0,42672013123533261
1	1	0	0	0	0	2	449844,92	0,100000001	2,48141313	0,00027781306766097747	0,10001077865961322	0,000248168071	-0,33774243850694317	0,012601624480232197	0,45727948977171174
1	1	0	0	0	0	2	450944,94	0,100000001	2,48705864	0,00027781194991618394	0,10001037627574259	0,000248731667	-0,30718305273151904	0,01146141270941996	0,48783887554713587
1	1	0	0	0	0	2	452044,96	0,100000001	2,47918153	0,00027781271331343389	0,10001065109695374	0,000247944554	-0,2766236505659656	0,010321200327069963	0,51839827771268998
1	1	0	0	0	0	2	453144,98	0,100000001	2,49526024	0,00027781328071902195	0,1000108553590324	0,000249553123	-0,24606422086719235	0,0091809869174185165	0,54895770741146278
1	1	0	0	0	0	2	454245,00	0,100000001	2,48915672	0,00027781292075374061	0,10001072576820498	0,000248942379	-0,21550478984379658	0,0080407734583436224	0,57951713843485837
1	1	0	0	0	0	2	455345,02	0,100000001	2,4868679	0,00027781308467893136	0,10001078478595867	0,000248713623	-0,18494535883345613	0,0069005599997558413	0,61007656944519936
1	1	0	0	0	0	2	456445,04	0,100000001	2,50023842	0,00027781340794223875	0,10001090115850859	0,000250051089	-0,15438592337205341	0,0057603463750929395	0,6406360049066025
1	1	0	0	0	0	2	457545,06	0,100000001	2,50401497	0,00027781337753476368	0,10001089020853555	0,00025042877	-0,12382648161431654	0,0046201325155053472	0,67119544666433933
1	1	0	0	0	0	2	458645,09	0,100000001	2,52261162	0,00027781286100505126	0,10001070426491226	0,000252288155	-0,093267032305087526	0,0034799183741614291	0,70175489597356787
1	1	0	0	0	0	2	459745,11	0,100000001	2,52158165	0,00027781260095536707	0,10001061064882851	0,000252184924	-0,06270762250853911	0,0023397057070887491	0,73231430577011686
1	1	0	0	0	0	2	460845,13	0,100000001	2,52987838	0,00027781281343433594	0,10001068713745597	0,000253014878	-0,032148170200859923	0,0011994914538686242	0,76287375807779584
1	1	0	0	0	0	2	461945,15	0,100000001	2,54311538	0,00027781286374934848	0,1000107052481832	0,000254338753	-0,0015887340319044822	5,9277802805980365E-005	0,79343319424675162
1	1	0	0	0	0	2	463045,17	0,100000001	2,54799819	0,00027781207288594707	0,1000104205474977	0,000254826358	0,02897066991474688	-0,0010809346459991749	0,82399259819340301
1	1	0	0	0	0	2	464145,19	0,100000001	2,56022429	0,00027781268191296198	0,10001063978834448	0,00025604968	0,05953007558052617	-0,0022211471589473043	0,85455200385918285
1	1	0	0	0	0	2	465245,21	0,100000001	2,56951284	0,00027781421952446304	0,10001119331782669	0,000256980042	0,090089521494991309	-0,0033613611736280173	0,88511144977364826
1	1	0	0	0	0	2	466345,23	0,100000001	2,58200598	0,00027781220493258701	0,10001046808337277	0,000258227636	0,12064894933900949	-0,0045015745140760589	0,91567087761766669
1	1	0	0	0	0	2	467445,26	0,100000001	2,59840918	0,00027781286764848566	0,10001070665184555	0,000259868742	0,15120836548737232	-0,0056417874181434752	0,94623029376602982
1	1	0	0	0	0	2	468545,28	0,100000001	2,62064862	0,00027781263287448221	0,1000106221394887	0,000262092712	0,18176787224753002	-0,0067820037030587853	0,97678980052618714
1	1	0	0	0	0	2	469384,57	0,100000001	2,64359403	0,00025781058156448931	0,10001064470963946	0,000264387549	0,20508418945488013	-0,0076519668471869171	1,0001061177335376