File: Experimentelles/Rohdaten/Batteriemessungen/AlteZelle/Studenten_Batterietests/Sonstige/ECLab-Export/S vs Li_05_GCPL_C02_loop4.mpt
EC-Lab ASCII FILE
Nb header lines : 3
mode	ox/red	error	control changes	Ns changes	counter inc.	Ns	time/s	control/V/mA	Ewe/V	dq/mA.h	<I>/mA	P/W	(Q-Qo)/mA.h	x	Capacity/mA.h
1	0	0	1	1	0	1	276005,32	-0,100000001	2,44263697	0	0	0	0	0	0
1	0	0	1	0	0	1	277095,34	-0,100000001	2,14789605	-0,00027771322431663674	-0,099974835743072666	0,000214735555	-0,030269227197425075	0,0011293855641447338	0,030269227197425075
1	0	0	1	0	0	1	278185,36	-0,100000001	2,12697244	-0,00027771286301852931	-0,099974705682913741	0,000212643441	-0,060539838741527898	0,002258822780125288	0,060539838741527898
1	0	0	1	0	0	1	279275,38	-0,100000001	2,10929155	-0,0002777118705411752	-0,099974348393290419	0,000210875049	-0,09081050759633609	0,0033882621344453146	0,09081050759633609
1	0	0	1	0	0	1	280365,40	-0,100000001	2,0879674	-0,0002777123088509672	-0,099974506181777318	0,000208743513	-0,12108119659233613	0,0045177022402602893	0,12108119659233613
1	0	0	1	0	0	1	281455,42	-0,100000001	2,05950999	-0,00027771363122057584	-0,099974982230325581	0,000205899472	-0,15135192981459805	0,0056471439962165574	0,15135192981459805
1	0	0	1	0	0	1	282545,44	-0,100000001	2,0152216	-0,00027771175052680902	-0,09997430518895049	0,000201470379	-0,18162255428904774	0,0067765816946457382	0,18162255428904774
1	0	0	1	0	0	1	283635,47	-0,100000001	1,97949708	-0,00027771198577682176	-0,09997438987965207	0,000197899019	-0,2118931761120081	0,0079060192941442867	0,2118931761120081
1	0	0	1	0	0	1	284725,49	-0,100000001	1,9595654	-0,00027771176735228966	-0,099974311250662221	0,000195906206	-0,24216377660610179	0,009035456097834144	0,24216377660610179
1	0	0	1	0	0	1	285815,51	-0,100000001	1,95405316	-0,00027771168676225674	-0,099974282234153664	0,000195355067	-0,27243430649243162	0,010164890267053398	0,27243430649243162
1	0	0	1	0	0	1	286905,53	-0,100000001	1,95304239	-0,00027771073875659043	-0,099973940961012685	0,000195253349	-0,30270485423487078	0,011294325102508099	0,30270485423487078
1	0	0	1	0	0	1	287995,55	-0,100000001	1,95029581	-0,00027771207792518864	-0,099974423054753088	0,000194979701	-0,33297537022983213	0,012423758753421718	0,33297537022983213
1	0	0	1	0	0	1	289085,57	-0,100000001	1,94760644	-0,00027771084093054138	-0,09997397774059913	0,000194709966	-0,3632458957732528	0,013553192760601194	0,3632458957732528
1	0	0	1	0	0	1	290175,59	-0,100000001	1,94543207	-0,00027771162951572074	-0,099974261632780493	0,000194493128	-0,39351639973220646	0,014682625962435181	0,39351639973220646
1	0	0	1	0	0	1	291265,61	-0,100000001	1,94182718	-0,00027771121373441485	-0,099974111952064768	0,000194132444	-0,42378685894298586	0,015812057494654624	0,42378685894298586
1	0	0	1	0	0	1	292355,63	-0,100000001	1,93759286	-0,00027771032222318979	-0,099973791014203366	0,000193708504	-0,45405737263064243	0,0169414910594796	0,45405737263064243
1	0	0	1	0	0	1	293445,65	-0,100000001	1,93219519	-0,0002777104351168705	-0,09997383165281824	0,000193168962	-0,48432786570958438	0,018070923855365722	0,48432786570958438
1	0	0	1	0	0	1	294535,68	-0,100000001	1,92342138	-0,00027771048714054954	-0,099973850383309734	0,000192291845	-0,51459835056472058	0,019200356344410598	0,51459835056472058
1	0	0	1	0	0	1	295625,70	-0,100000001	1,91481924	-0,00027771017069493731	-0,099973736465082816	0,000191431638	-0,5448687419701488	0,020329785346721226	0,5448687419701488
1	0	0	1	0	0	1	296715,72	-0,100000001	1,90575945	-0,0002777097403941055	-0,099973581556274586	0,000190525592	-0,575139092494808	0,021459212823715392	0,575139092494808
1	0	0	1	0	0	1	297805,74	-0,100000001	1,8960129	-0,00027771082437535126	-0,099973971785500762	0,000189551938	-0,60540948094630618	0,022588641715810918	0,60540948094630618
1	0	0	1	0	0	1	298895,76	-0,100000001	1,88359618	-0,00027771003359970118	-0,099973687111748083	0,000188310049	-0,63567992030244006	0,023718072507226842	0,63567992030244006
1	0	0	1	0	0	1	299985,78	-0,100000001	1,86868083	-0,00027770887173049978	-0,099973268843397786	0,000186818128	-0,66595031896235994	0,024847501780212301	0,66595031896235994
1	0	0	1	0	0	1	301075,80	-0,100000001	1,84592628	-0,00027770935195104941	-0,0999734417229584	0,000184543605	-0,69622067417007744	0,025976929431937677	0,69622067417007744
1	0	0	1	0	0	1	302165,82	-0,100000001	1,80503297	-0,00027771089006960394	-0,099973995434976358	0,000180456351	-0,72649106024733862	0,027106358235447222	0,72649106024733862
1	0	0	1	0	0	1	303255,84	-0,100000001	1,39238048	-0,00027771021185815334	-0,099973751280063782	0,000139201496	-0,75676150023029875	0,028235789050250877	0,75676150023029875
1	1	0	0	0	0	2	304329,55	0,100000001	2,43365335	0,00027781140309613616	0,1000101794278085	0,00024339011	-0,77880143974348646	0,029058128826501747	0,0038893702769552672
1	1	0	0	0	0	2	305419,57	0,100000001	2,44021463	0,00027781186445595488	0,10001034550948826	0,000244046707	-0,74851992438732442	0,027928284774632931	0,034170885633117197
1	1	0	0	0	0	2	306509,59	0,100000001	2,42632914	0,00027781179589529834	0,10001032082812715	0,000242657959	-0,71823835359972224	0,026798438654542557	0,064452456420719181
1	1	0	0	0	0	2	307599,61	0,100000001	2,43147898	0,00027781115749561126	0,10001009101332195	0,000243172428	-0,68795688395283789	0,025668596308148352	0,094733926067603059
1	1	0	0	0	0	2	308689,63	0,100000001	2,43853617	0,00027781126206161251	0,10001012865170059	0,000243878312	-0,65767546574781875	0,024538755881119299	0,12501534427262221
1	1	0	0	0	0	2	309779,65	0,100000001	2,44114923	0,00027781238961426749	0,1000105345651691	0,000244140654	-0,62739396782032947	0,023408912479537696	0,155296842200112
1	1	0	0	0	0	2	310869,67	0,100000001	2,44984651	0,00027781067567318682	0,10000991756058896	0,000245008938	-0,59711245888213926	0,022279068667132038	0,18557835113830157
1	1	0	0	0	0	2	311959,69	0,100000001	2,45133424	0,00027781103630032803	0,10001004737920307	0,000245158066	-0,56683102460794022	0,021149227640540282	0,2158597854125016
1	1	0	0	0	0	2	313049,72	0,100000001	2,44872117	0,00027781225820051299	0,1000104872571284	0,00024489779	-0,5365495078794832	0,020019383537469293	0,24614130214095907
1	1	0	0	0	0	2	314139,74	0,100000001	2,45253587	0,00027781161505811744	0,10001025573265251	0,00024527873	-0,50626811463407149	0,018889544041716752	0,2764226953863705
1	1	0	0	0	0	2	315229,76	0,100000001	2,45762849	0,00027781149097366464	0,10001021105845264	0,000245787931	-0,47598664790477632	0,017759701804181722	0,3067041621156656
1	1	0	0	0	0	2	316319,78	0,100000001	2,46432328	0,00027781054867721267	0,10000987184059008	0,00024645665	-0,44570518426604806	0,016629859681959894	0,33698562575439392
1	1	0	0	0	0	2	317409,80	0,100000001	2,46958756	0,00027781054635552899	0,10000987100712854	0,000246983138	-0,41542375872543091	0,015500018981229818	0,36726705129501101
1	1	0	0	0	0	2	318499,82	0,100000001	2,47740769	0,00027781076227707997	0,10000994873273322	0,00024776542	-0,38514236250416493	0,014370179374444155	0,39754844751627699
1	1	0	0	0	0	2	319589,84	0,100000001	2,48162293	0,00027781089425583677	0,10000999624649934	0,000248187105	-0,35486093268692186	0,013240338514147414	0,42782987733352006
1	1	0	0	0	0	2	320679,86	0,100000001	2,48000169	0,00027781153977413974	0,10001022863094238	0,00024802555	-0,32457944772008934	0,012110495596145341	0,45811136230035258
1	1	0	0	0	0	2	321769,88	0,100000001	2,48692513	0,00027781181566251651	0,10001032794884568	0,000248718192	-0,29429794398050176	0,010980651977706538	0,48839286603994022
1	1	0	0	0	0	2	322859,90	0,100000001	2,49440193	0,0002778124145223863	0,10001054353075496	0,00024946648	-0,26401640473824768	0,0098508070346155149	0,51867440528219386
1	1	0	0	0	0	2	323949,93	0,100000001	2,49945641	0,00027781147600048115	0,10001020567286736	0,000249971141	-0,23373490819940506	0,0087209636848461888	0,54895590182103603
1	1	0	0	0	0	2	325039,95	0,100000001	2,50617027	0,00027781178172760538	0,1000103157325129	0,000250642886	-0,20345339150526048	0,0075911195830554458	0,57923741851518016
1	1	0	0	0	0	2	326129,97	0,100000001	2,51303673	0,00027781227462407613	0,10001049316833302	0,000251330057	-0,17317189019654275	0,0064612760553156646	0,60951891982389773
1	1	0	0	0	0	2	327219,99	0,100000001	2,523489	0,00027781093534206349	0,10001001103958466	0,000252374157	-0,14289034787471558	0,0053314309973216282	0,63980046214572467
1	1	0	0	0	0	2	328310,01	0,100000001	2,53096557	0,00027781187751061392	0,10001035021373203	0,000253122766	-0,11260887957002226	0,0042015887010063718	0,67008193045041792
1	1	0	0	0	0	2	329400,03	0,100000001	2,53933883	0,00027781279054449667	0,10001067889610824	0,000253961014	-0,082327365816588634	0,0030717447089375091	0,70036344420385178
1	1	0	0	0	0	2	330490,05	0,100000001	2,55022979	0,00027781121183269558	0,10001011057429565	0,00025504877	-0,052045834206350944	0,0019419000506072774	0,73064497581408883
1	1	0	0	0	0	2	331580,07	0,100000001	2,55780196	0,00027781214992950362	0,10001044828264402	0,000255806925	-0,021764352588814547	0,00081205725757194739	0,76092645743162483
1	1	0	0	0	0	2	332670,09	0,100000001	2,56747222	0,00027781093987574182	0,10001001266818467	0,000256772939	0,0085171408078037491	-0,0003177859749567655	0,79120795082824307
1	1	0	0	0	0	2	333760,11	0,100000001	2,57636023	0,0002778105685561895	0,10000987899921245	0,000257661479	0,038798525214197773	-0,001447625140913672	0,82148933523463706
1	1	0	0	0	0	2	334850,14	0,100000001	2,5829978	0,0002778115666338967	0,1000102383002687	0,000258326239	0,069079943402415757	-0,0025774655673158506	0,85177075342285504
1	1	0	0	0	0	2	335940,16	0,100000001	2,59007406	0,00027781208925114739	0,10001042644002064	0,000259034423	0,099361427458348378	-0,0037073084513310221	0,88205223747878694
1	1	0	0	0	0	2	337030,18	0,100000001	2,56491637	0,00027781209509861139	0,10001042854390288	0,000256518397	0,12964293800464066	-0,0048371523237371302	0,91233374802507955
1	1	0	0	0	0	2	338120,20	0,100000001	2,57405233	0,00027781096755754621	0,1000100226369351	0,000257431035	0,15992444214783856	-0,005966995957235177	0,94261525216827763
1	1	0	0	0	0	2	339210,22	0,100000001	2,58404684	0,00027781248219642368	0,10001056789293934	0,000258432003	0,1902059327007151	-0,0070968390836600602	0,97289674272115456
1	1	0	0	0	0	2	340189,52	0,100000001	2,59676886	0,00025780908559345536	0,1000100643881233	0,000259703025	0,21741150683095965	-0,0081119156327429312	1,0001023168513992