File: Experimentelles/Rohdaten/Batteriemessungen/AlteZelle/Studenten_Batterietests/S vs Li GCPL 300µm/ZView-Export/S vs Li GCPL 300µm_02_GCPL_C06_loop6.txt
EC-Lab ASCII FILE
Nb header lines : 3
mode	ox/red	error	control changes	Ns changes	counter inc.	Ns	time/s	control/V/mA	Ewe/V	dq/mA.h	<I>/mA	P/W	(Q-Qo)/mA.h	x	Capacity/mA.h
1	0	0	1	1	0	1	425642,54	-0,200000003	2,33549881	0	0	0	0	0	0
1	0	0	1	0	0	1	426792,56	-0,200000003	2,26496339	-0,00055587710172351872	-0,20011190347952317	0,000453246146	-0,063922185831080576	0,0023850226976505264	0,063922185831080576
1	0	0	1	0	0	1	427942,59	-0,200000003	2,24269605	-0,00055587784322351213	-0,20011217040972189	0,000448790786	-0,12784750400859934	0,0047701622673581466	0,12784750400859934
1	0	0	1	0	0	1	429092,61	-0,200000003	2,21802855	-0,00055588081886619328	-0,2001132416297793	0,000443856872	-0,19177333873765174	0,0071553211102979968	0,19177333873765174
1	0	0	1	0	0	1	430242,63	-0,200000003	2,17884636	-0,00055588014487177126	-0,20011299898714096	0,000436015485	-0,25569981501513485	0,0095405038902723686	0,25569981501513485
1	0	0	1	0	0	1	431392,65	-0,200000003	2,10404396	-0,00055588783392310138	-0,20011576699698118	0,000421052362	-0,31962654774313696	0,011925696238760406	0,31962654774313696
1	0	0	1	0	0	1	432542,68	-0,200000003	1,98240173	-0,00055588306446125107	-0,20011405002843446	0,000396706426	-0,3835536222028329	0,014310901337717402	0,3835536222028329
1	0	0	1	0	0	1	433692,70	-0,200000003	1,93847656	-0,00055587425127542682	-0,20011087734262749	0,000387910259	-0,44747993303328096	0,016696077944640454	0,44747993303328096
1	0	0	1	0	0	1	434842,72	-0,200000003	1,94053376	-0,00055588526817162822	-0,20011484334190614	0,000388329616	-0,51140614618802048	0,019081250907151488	0,51140614618802048
1	0	0	1	0	0	1	435992,74	-0,200000003	1,94468629	-0,00055587972295615405	-0,20011284710976163	0,000389156718	-0,57533262775131302	0,021466433884346512	0,57533262775131302
1	0	0	1	0	0	1	437142,76	-0,200000003	1,95059121	-0,00055587554493546483	-0,20011134305127405	0,000390335423	-0,6392588584414089	0,023851607501125274	0,6392588584414089
1	0	0	1	0	0	1	438292,79	-0,200000003	1,96083915	-0,00055588583825031917	-0,20011504856395366	0,000392393413	-0,70318457633795776	0,026236761984887331	0,70318457633795776
1	0	0	1	0	0	1	439442,81	-0,200000003	1,9760778	-0,00055588798935049107	-0,2001158229451049	0,000395444426	-0,76711127169591488	0,028621952939048749	0,76711127169591488
1	0	0	1	0	0	1	440592,83	-0,200000003	1,98964012	-0,00055587807159125798	-0,2001122526298457	0,000398151373	-0,83103807255216269	0,031007147829493229	0,83103807255216269
1	0	0	1	0	0	1	441742,85	-0,200000003	1,99866903	-0,00055589127988616634	-0,20011700752445763	0,000399967656	-0,89496513054208474	0,033392352313940819	0,89496513054208474
1	0	0	1	0	0	1	442892,87	-0,200000003	2,0040977	-0,00055588702221794266	-0,2001154747864209	0,000401050958	-0,95889278419478835	0,035777579023367667	0,95889278419478835
1	0	0	1	0	0	1	444042,90	-0,200000003	2,00866938	-0,00055588704996224909	-0,20011548478116771	0,000401965837	-1,0228195995288563	0,038162774453999085	1,0228195995288563
1	0	0	1	0	0	1	445192,92	-0,200000003	2,01508856	-0,00055588577754298842	-0,20011502671905382	0,000403249491	-1,0867468944875371	0,04054798778006967	1,0867468944875371
1	0	0	1	0	0	1	446342,94	-0,200000003	2,02190781	-0,00055588479496373069	-0,2001146729926727	0,000404613413	-1,1506739416959544	0,042933191862244819	1,1506739416959544
1	0	0	1	0	0	1	447492,96	-0,200000003	2,02825093	-0,00055588398315757504	-0,20011438074342467	0,000405882165	-1,2146005903324798	0,045318381073166803	1,2146005903324798
1	0	0	1	0	0	1	448642,99	-0,200000003	2,03276539	-0,00055588367948846688	-0,20011427143396899	0,000406785373	-1,2785271111335426	0,047703565514375789	1,2785271111335426
1	0	0	1	0	0	1	449793,01	-0,200000003	2,03468919	-0,00055587643638004858	-0,20011166395582675	0,000407165033	-1,3424528657191645	0,050088721367056499	1,3424528657191645
1	0	0	1	0	0	1	450943,03	-0,200000003	2,03385115	-0,00055588164962165882	-0,20011354068899965	0,000407001149	-1,4063786547599362	0,052473878505305165	1,4063786547599362
1	0	0	1	0	0	1	452093,05	-0,200000003	2,03032708	-0,00055587161581052678	-0,20010992859353155	0,0004062886	-1,4703043753672259	0,054859033090208608	1,4703043753672259
1	0	0	1	0	0	1	453243,07	-0,200000003	2,02352691	-0,00055586977971179616	-0,20010926761071571	0,000404926483	-1,5342302654711398	0,057244193999259002	1,5342302654711398
1	0	0	1	0	0	1	454393,10	-0,200000003	2,00383115	-0,00055587849699954189	-0,20011240576922	0,00040099147	-1,598156214202464	0,059629357095776896	1,598156214202464
1	0	0	1	0	0	1	455543,12	-0,200000003	1,96091533	-0,00055586851239866682	-0,20010881137745555	0,00039239644	-1,6620816061045494	0,062014499416247219	1,6620816061045494
1	0	0	1	0	0	1	456693,14	-0,200000003	1,88369381	-0,00055587438641571334	-0,20011092599219392	0,000376947719	-1,726006758320049	0,064399632793688755	1,726006758320049
1	0	0	1	0	0	1	457843,16	-0,200000003	1,72039342	-0,00055586875710967514	-0,20010889947172234	0,000344266038	-1,789931989984937	0,066784769135493798	1,789931989984937
1	1	0	0	0	0	2	458980,03	0,200000003	2,28606868	0,00055535320653435251	0,19992330484054976	0,000457038404	-1,7742286867748717	0,066198857779410547	0,039430285145320813
1	1	0	0	0	0	2	460130,05	0,200000003	2,25799155	0,00055535690739585293	0,19992463713201901	0,000451428146	-1,7103624646074019	0,063815923161293299	0,10329650731279037
1	1	0	0	0	0	2	461280,07	0,200000003	2,25774407	0,00055535489190783763	0,19992391157030413	0,00045137704	-1,6464969711970435	0,061433015734083674	0,16716200072314835
1	1	0	0	0	0	2	462430,10	0,200000003	2,26102042	0,00055535007836752474	0,19992217872915718	0,000452028122	-1,5826318251015942	0,059050121265660301	0,23102714681859725
1	1	0	0	0	0	2	463580,12	0,200000003	2,2657063	0,00055534610896060864	0,19992074976087251	0,000452961714	-1,5187662758576771	0,056667211755225542	0,29489269606251507
1	1	0	0	0	0	2	464730,14	0,200000003	2,27039194	0,00055535828309837312	0,19992513237539043	0,000453908404	-1,4549006982836045	0,054284301187754592	0,35875827363658925
1	1	0	0	0	0	2	465880,16	0,200000003	2,27580166	0,0005553668343250951	0,19992821074842666	0,000454996945	-1,3910342332376115	0,051901357507513075	0,42262473868258118
1	1	0	0	0	0	2	467030,19	0,200000003	2,28142095	0,00055537884931017952	0,19993253606442832	0,000456130278	-1,3271662479350253	0,049518357104454054	0,48649272398516755
1	1	0	0	0	0	2	468180,21	0,200000003	2,28665924	0,00055535989236003827	0,19992571169843504	0,000457161979	-1,2632988954425947	0,047135380312392774	0,55036007647759808
1	1	0	0	0	0	2	469330,23	0,200000003	2,29174519	0,00055535530087269018	0,19992405879481622	0,000458174996	-1,1994327138684339	0,044752447208866451	0,61422625805176128
1	1	0	0	0	0	2	470480,25	0,200000003	2,29709768	0,0005553619725331664	0,19992646053935997	0,000459250616	-1,1355662545892704	0,042369503743793094	0,67809271733092582
1	1	0	0	0	0	2	471630,27	0,200000003	2,30290747	0,00055536205548793075	0,1999264904001727	0,000460412208	-1,0716998692507045	0,039986563037542848	0,74195910266949222
1	1	0	0	0	0	2	472780,30	0,200000003	2,30885053	0,00055535741489297818	0,19992481982746634	0,00046159653	-1,0078343143813418	0,037603653317215149	0,80582465753885606
1	1	0	0	0	0	2	473930,32	0,200000003	2,31467915	0,00055534215827037888	0,19991932753977462	0,0004627491	-0,94396922133270528	0,035220760828039674	0,86968975058749338
1	1	0	0	0	0	2	475080,34	0,200000003	2,32035565	0,00055535223092304333	0,19992295362956845	0,000463892356	-0,88010366317641229	0,032837850985072192	0,93355530874378624
1	1	0	0	0	0	2	476230,36	0,200000003	2,32511759	0,00055535060272283021	0,19992236749343254	0,000464843004	-0,8162383117096512	0,030454948853969043	0,99742066021054733
1	1	0	0	0	0	2	477380,38	0,200000003	2,32827973	0,0005553539463323024	0,19992357116966582	0,000465477991	-0,75237284811461658	0,028072042539209248	1,0612861238055811
1	1	0	0	0	0	2	478530,41	0,200000003	2,3304131	0,00055534427521046662	0,19992008962585965	0,000465896388	-0,68850773447537728	0,025689149281770698	1,1251512374448187
1	1	0	0	0	0	2	479680,43	0,200000003	2,33191776	0,0005553523104662697	0,19992298226923331	0,000466203957	-0,6246420883780983	0,02330623615760679	1,1890168835420984
1	1	0	0	0	0	2	480830,45	0,200000003	2,33262253	0,00055536082759913472	0,19992604837802704	0,000466352009	-0,5607754199350423	0,020923284888347382	1,2528835519851539
1	1	0	0	0	0	2	481980,47	0,200000003	2,33330846	0,00055535341435174144	0,19992337965104189	0,000466482918	-0,4969090607977767	0,018540345159702883	1,3167499111224181
1	1	0	0	0	0	2	483130,50	0,200000003	2,33376551	0,00055535355981439347	0,19992343201658832	0,00046657442	-0,4330433243578937	0,01615742866473495	1,3806156475623011
1	1	0	0	0	0	2	484280,52	0,200000003	2,33405113	0,0005553510979546441	0,19992254577345277	0,000466629455	-0,36917724854176832	0,01377449950718312	1,4444817233784262
1	1	0	0	0	0	2	485430,54	0,200000003	2,33509898	0,00055535760658979418	0,1999248888369913	0,000466844416	-0,30531125291904256	0,01139157334175485	1,5083477190011514
1	1	0	0	0	0	2	486580,56	0,200000003	2,33654666	0,00055537816836684947	0,19993229092722208	0,000467151112	-0,24144465748601699	0,0090086247965978394	1,5722143144341776
1	1	0	0	0	0	2	487730,58	0,200000003	2,33831811	0,0005553701967464553	0,19992942120611894	0,000467498583	-0,17757806309471658	0,0066256762903089984	1,6360809088254774
1	1	0	0	0	0	2	488880,61	0,200000003	2,34088945	0,00055536610089656384	0,19992794672854896	0,00046800921	-0,11371166416866795	0,0042427350770915053	1,6999473077515251
1	1	0	0	0	0	2	490030,63	0,200000003	2,34380388	0,00055535504063384397	0,19992396510598074	0,000468582555	-0,049845280207672499	0,0018597944222402666	1,7638136917125197
1	1	0	0	0	0	2	491180,65	0,200000003	2,3469851	0,00055535969409263789	0,19992564031423565	0,00046922249	0,014020901021061232	-0,00052313866839771034	1,8276798729412531
1	1	0	0	0	0	2	492330,67	0,200000003	2,35068035	0,0005553553723560439	0,19992408452832806	0,000469957624	0,077886690629643277	-0,002906057147161289	1,8915456625498362
1	1	0	0	0	0	2	493480,69	0,200000003	2,3550806	0,00055535079473588192	0,19992243660749072	0,000470833445	0,14175223212512794	-0,0052889663684916128	1,955411204045321
1	1	0	0	0	0	2	494269,99	0,200000003	2,35818529	0,00051536228131916781	0,19992086322053389	0,000471450447	0,1855850531839815	-0,0069244278560521434	1,999244025104175