File: Experimentelles/Rohdaten/Batteriemessungen/AlteZelle/Studenten_Batterietests/S vs Li GCPL 300µm/ZView-Export/S vs Li GCPL 300µm_02_GCPL_C06_loop5.txt
EC-Lab ASCII FILE
Nb header lines : 3
mode	ox/red	error	control changes	Ns changes	counter inc.	Ns	time/s	control/V/mA	Ewe/V	dq/mA.h	<I>/mA	P/W	(Q-Qo)/mA.h	x	Capacity/mA.h
1	0	0	1	1	0	1	357700,44	-0,200000003	2,32873678	0	0	0	0	0	0
1	0	0	1	0	0	1	358840,46	-0,200000003	2,26229668	-0,00055587790760563475	-0,20011219359615802	0,000452713139	-0,063366884743183872	0,002364303667450847	0,063366884743183872
1	0	0	1	0	0	1	359980,48	-0,200000003	2,2398386	-0,0005558758566859696	-0,20011145527929478	0,000448217354	-0,12673720289665794	0,0047287354400558906	0,12673720289665794
1	0	0	1	0	0	1	361120,50	-0,200000003	2,21160913	-0,00055587809230718349	-0,20011226008277616	0,000442570104	-0,19010751420749642	0,007093166957353001	0,19010751420749642
1	0	0	1	0	0	1	362260,53	-0,200000003	2,16496015	-0,00055587407101276851	-0,20011081244000182	0,000433231937	-0,25347733398449827	0,009457580134861792	0,25347733398449827
1	0	0	1	0	0	1	363400,55	-0,200000003	2,08509088	-0,00055587163656039366	-0,20010993606333981	0,000417247415	-0,31684718313368006	0,011821994408286109	0,31684718313368006
1	0	0	1	0	0	1	364540,57	-0,200000003	1,98807812	-0,00055586934542159245	-0,20010911125993456	0,00039783254	-0,38021690226776883	0,014186403830672496	0,38021690226776883
1	0	0	1	0	0	1	365680,59	-0,200000003	1,96306789	-0,00055588446325808768	-0,20011455357861088	0,000392838469	-0,44358609148985542	0,01655079348132961	0,44358609148985542
1	0	0	1	0	0	1	366820,61	-0,200000003	1,96645844	-0,00055586893187959994	-0,20010896239700192	0,000393505965	-0,50695563785316986	0,018915196457406115	0,50695563785316986
1	0	0	1	0	0	1	367960,64	-0,200000003	1,97344911	-0,00055587099632041331	-0,20010970558138477	0,000394906325	-0,57032454285534739	0,021279575503436282	0,57032454285534739
1	0	0	1	0	0	1	369100,66	-0,200000003	1,9824208	-0,00055586772086802458	-0,20010852643424048	0,000396699295	-0,63369367572990374	0,02364396305169128	0,63369367572990374
1	0	0	1	0	0	1	370240,68	-0,200000003	1,99499261	-0,00055586345803075373	-0,20010699184935997	0,000399211975	-0,6970625141358345	0,026008339612925942	0,6970625141358345
1	0	0	1	0	0	1	371380,70	-0,200000003	2,00537395	-0,00055586832026557792	-0,20010874222019344	0,000401292869	-0,76043222882883699	0,02837274886960943	0,76043222882883699
1	0	0	1	0	0	1	372520,72	-0,200000003	2,01345038	-0,00055587445886350342	-0,20011095206357792	0,000402913487	-0,82380233468615552	0,030737172721159475	0,82380233468615552
1	0	0	1	0	0	1	373660,75	-0,200000003	2,02099347	-0,00055587837236126259	-0,20011236089564426	0,00040442578	-0,88717198212068621	0,03310157946833895	0,88717198212068621
1	0	0	1	0	0	1	374800,77	-0,200000003	2,0268414	-0,0005558714654362864	-0,20010987445984736	0,000405590981	-0,95054166063063885	0,035465987374984198	0,95054166063063885
1	0	0	1	0	0	1	375940,79	-0,200000003	2,03312731	-0,00055587175906946253	-0,20010998016575542	0,000406849053	-1,0139109899033667	0,03783038225111904	1,0139109899033667
1	0	0	1	0	0	1	377080,81	-0,200000003	2,03922272	-0,00055587426566746496	-0,2001108825166728	0,000408070657	-1,0772805552495211	0,040194785935470822	1,0772805552495211
1	0	0	1	0	0	1	378220,83	-0,200000003	2,04472756	-0,00055587325952036518	-0,20011052031767978	0,000409171509	-1,1406506360136606	0,042559208850760614	1,1406506360136606
1	0	0	1	0	0	1	379360,86	-0,200000003	2,04821348	-0,00055586822867062349	-0,2001087092466448	0,000409865344	-1,2040203898911854	0,044923619569471322	1,2040203898911854
1	0	0	1	0	0	1	380500,88	-0,200000003	2,04971838	-0,00055586912516338957	-0,20010903197316736	0,000410167151	-1,2673893216041374	0,047287999612116397	1,2673893216041374
1	0	0	1	0	0	1	381640,90	-0,200000003	2,04952788	-0,00055586780752324397	-0,20010855762718928	0,000410128065	-1,3307585386043674	0,049652390299213389	1,3307585386043674
1	0	0	1	0	0	1	382780,92	-0,200000003	2,04613733	-0,00055587674124373325	-0,20011177371395827	0,000409456174	-1,3941280694130762	0,052016792694926643	1,3941280694130762
1	0	0	1	0	0	1	383920,94	-0,200000003	2,03440356	-0,00055586533598684608	-0,20010766790053594	0,000407099753	-1,457497403359215	0,054381187745432736	1,457497403359215
1	0	0	1	0	0	1	385060,97	-0,200000003	2,00695491	-0,00055587125513868211	-0,20010979874950842	0,000401611353	-1,520866916788281	0,056745589492688141	1,520866916788281
1	0	0	1	0	0	1	386200,99	-0,200000003	1,95908678	-0,00055585723265757158	-0,20010475075816643	0,000392022572	-1,5842352970342634	0,05910994895935913	1,5842352970342634
1	0	0	1	0	0	1	387341,01	-0,200000003	1,88205576	-0,00055586533418877261	-0,20010766725324192	0,000376613782	-1,6476037217963696	0,061474310086986547	1,6476037217963696
1	0	0	1	0	0	1	388481,03	-0,200000003	1,75317538	-0,00055585870479957926	-0,20010528071209638	0,000350819639	-1,7109719218930688	0,063838662832045568	1,7109719218930688
1	0	0	1	0	0	1	389621,05	-0,200000003	1,50484359	-0,00055586510225550995	-0,20010758375887507	0,000301130611	-1,7743402199988813	0,066203019233956352	1,7743402199988813
1	1	0	0	0	0	2	390742,54	0,200000003	2,26814437	0,0005553606147012777	0,19992597173627424	0,000453460962	-1,7144434468626586	0,063968190096175923	0,061089911152535834
1	1	0	0	0	0	2	391882,56	0,200000003	2,2544868	0,00055535886970741875	0,1999253435435985	0,000450729043	-1,6511323399128966	0,06160596757319168	0,12440101810229816
1	1	0	0	0	0	2	393022,58	0,200000003	2,25602961	0,0005553708086692624	0,1999296414940879	0,000451047177	-1,587821149199943	0,05924374192489015	0,18771220881525254
1	1	0	0	0	0	2	394162,61	0,200000003	2,2596488	0,00055536714093635482	0,19992832113566451	0,000451767788	-1,5245098885768362	0,05688151366814679	0,2510234694383599
1	1	0	0	0	0	2	395302,63	0,200000003	2,26401091	0,00055537339714583418	0,19993057332305645	0,000452645007	-1,461198227407127	0,054519270466471181	0,31433513060806848
1	1	0	0	0	0	2	396442,65	0,200000003	2,26884913	0,00055536090053535168	0,19992607462524998	0,000453602115	-1,3978874774202238	0,052157061262251149	0,37764588059497139
1	1	0	0	0	0	2	397582,67	0,200000003	2,27330637	0,00055536729761378637	0,19992837753845386	0,000454498455	-1,3345762503627536	0,049794834257886829	0,44095710765244179
1	1	0	0	0	0	2	398722,69	0,200000003	2,27843046	0,00055536974084211725	0,19992925707440768	0,000455524918	-1,2712647772241514	0,047432598071904621	0,50426858079104294
1	1	0	0	0	0	2	399862,72	0,200000003	2,28326869	0,0005553738537116183	0,19993073768357398	0,000456495589	-1,2079525303132042	0,045070333015435866	0,56758082770198957
1	1	0	0	0	0	2	401002,74	0,200000003	2,28854513	0,00055538244373351334	0,19993383003656822	0,000457557588	-1,1446400599638834	0,042708059622180979	0,63089329805131072
1	1	0	0	0	0	2	402142,76	0,200000003	2,29393578	0,00055538379664719104	0,19993431707611427	0,000458636496	-1,0813277058495002	0,040345790565807891	0,69420565216569587
1	1	0	0	0	0	2	403282,78	0,200000003	2,29940248	0,00055536763837188486	0,19992850020202502	0,000459716102	-1,0180156296451138	0,037983531878630445	0,75751772837008179
1	1	0	0	0	0	2	404422,80	0,200000003	2,30538368	0,00055536679762353498	0,19992819754542912	0,000460911193	-0,95470381474779469	0,035621282941171008	0,82082954326740019
1	1	0	0	0	0	2	405562,82	0,200000003	2,31155539	0,00055537025901261306	0,19992944362150413	0,000462147989	-0,89139204508324096	0,033259035691406867	0,88414131293195392
1	1	0	0	0	0	2	406702,85	0,200000003	2,31753635	0,00055537823252048762	0,19993231402441459	0,000463350414	-0,82807975812708902	0,030896769140797683	0,94745359988810586
1	1	0	0	0	0	2	407842,87	0,200000003	2,3227365	0,00055535758162620992	0,19992487984096445	0,000464372803	-0,76476778601755354	0,028534514337539082	1,010765571997641
1	1	0	0	0	0	2	408982,89	0,200000003	2,32631755	0,00055537032865484557	0,19992946869222512	0,000465099438	-0,70145616566521331	0,026172272658814371	1,0740771923499816
1	1	0	0	0	0	2	410122,91	0,200000003	2,32847023	0,0005553688666390048	0,19992894236734685	0,000465528603	-0,63814460143758797	0,02381003307417824	1,1373887565776074
1	1	0	0	0	0	2	411262,93	0,200000003	2,32965112	0,00055536452042145869	0,19992737776381155	0,000465761026	-0,57483346118162662	0,021447809308494922	1,2006998968335686
1	1	0	0	0	0	2	412402,96	0,200000003	2,33039403	0,00055536079869170982	0,19992603797155446	0,000465906458	-0,51152207005456685	0,019085576182473626	1,2640112879606293
1	1	0	0	0	0	2	413542,98	0,200000003	2,33132744	0,00055537177000525926	0,19992998756838314	0,000466102269	-0,44821026735631194	0,016723327700177677	1,3273230906588827
1	1	0	0	0	0	2	414683,00	0,200000003	2,33191776	0,00055537743448383283	0,1999320267344231	0,000466225058	-0,38489804310539168	0,014361063489184998	1,3906353149098026
1	1	0	0	0	0	2	415823,02	0,200000003	2,33235598	0,00055538835196031462	0,19993595695726301	0,000466321828	-0,32158507503839904	0,011998771525414589	1,4539482829767952
1	1	0	0	0	0	2	416963,04	0,200000003	2,33313704	0,00055537808280934893	0,19993226013409738	0,000466469355	-0,25827205609958454	0,0096364776635481062	1,5172613019156102
1	1	0	0	0	0	2	418103,07	0,200000003	2,33483219	0,00055541054795434074	0,19994394735660269	0,000466835569	-0,19495771333556458	0,0072741344079833075	1,5805756446796285
1	1	0	0	0	0	2	419243,09	0,200000003	2,33698463	0,00055541665234747866	0,19994614489116362	0,000467271078	-0,13164122020968472	0,0049117109195263226	1,6438921378055088
1	1	0	0	0	0	2	420383,11	0,200000003	2,33915615	0,00055538893415613306	0,19993616654372208	0,000467681908	-0,068324893633490714	0,0025492936452620458	1,707208464381703
1	1	0	0	0	0	2	421523,13	0,200000003	2,34184194	0,00055537072023500998	0,19992960964906026	0,000468203536	-0,0050122444587938797	0,00018701357979194749	1,7705211135564
1	1	0	0	0	0	2	422663,15	0,200000003	2,34513736	0,00055536920085052653	0,1999290626858329	0,000468861108	0,05829954494557184	-0,0021752344064911235	1,8338329029607651
1	1	0	0	0	0	2	423803,18	0,200000003	2,34868026	0,00055536288369943699	0,19992678855988374	0,000469564111	0,12161122269039834	-0,0045374782266066592	1,8971445807055904
1	1	0	0	0	0	2	424943,20	0,200000003	2,3523376	0,00055535932608611053	0,19992550784374627	0,000470292289	0,18492270519531264	-0,0068997147620585664	1,9604560632105059
1	1	0	0	0	0	2	425642,49	0,200000003	2,35473752	0,00051538106505821152	0,19992814989433709	0,000470778323	0,22375808198676765	-0,0083487148848671782	1,999291440001961