File: Experimentelles/Rohdaten/Batteriemessungen/AlteZelle/Studenten_Batterietests/S vs Li GCPL 300µm/ZView-Export/S vs Li GCPL 300µm_02_GCPL_C06_loop8.txt
EC-Lab ASCII FILE
Nb header lines : 3
mode	ox/red	error	control changes	Ns changes	counter inc.	Ns	time/s	control/V/mA	Ewe/V	dq/mA.h	<I>/mA	P/W	(Q-Qo)/mA.h	x	Capacity/mA.h
1	0	0	1	1	0	1	561766,56	-0,200000003	2,3427372	0	0	0	0	0	0
1	0	0	1	0	0	1	562906,58	-0,200000003	2,26566815	-0,0005558838133886457	-0,2001144150572569	0,000453392859	-0,063367444923114227	0,0023643245685172192	0,063367444923114227
1	0	0	1	0	0	1	564046,60	-0,200000003	2,24313402	-0,00055588455422388186	-0,20011468175293386	0,000448884064	-0,12673768008405368	0,0047287532445592109	0,12673768008405368
1	0	0	1	0	0	1	565186,62	-0,200000003	2,22008562	-0,00055586931328061562	-0,20010919510706838	0,000444259553	-0,19010793540037328	0,0070931826726255373	0,19010793540037328
1	0	0	1	0	0	1	566326,64	-0,200000003	2,18589401	-0,00055587149235357837	-0,20010997956792262	0,000437419192	-0,25347797684733981	0,0094576041209387482	0,25347797684733981
1	0	0	1	0	0	1	567466,66	-0,200000003	2,12053967	-0,00055587596284598106	-0,20011158891496717	0,000424344558	-0,31684772866941171	0,011822014762957738	0,31684772866941171
1	0	0	1	0	0	1	568606,68	-0,200000003	1,98550665	-0,00055586956440409018	-0,2001092855144807	0,000397318305	-0,38021791077580883	0,014186441459463421	0,38021791077580883
1	0	0	1	0	0	1	569746,71	-0,200000003	1,91329479	-0,00055585835629039347	-0,20010525067397552	0,000382860337	-0,44358654716707686	0,016550810483259405	0,44358654716707686
1	0	0	1	0	0	1	570886,73	-0,200000003	1,90879941	-0,00055586831715454662	-0,20010883651773542	0,000381967635	-0,50695489695224749	0,018915168813396547	0,50695489695224749
1	0	0	1	0	0	1	572026,75	-0,200000003	1,91171384	-0,00055586005595326419	-0,20010586253646035	0,000382545142	-0,57032349487535251	0,021279536401893648	0,57032349487535251
1	0	0	1	0	0	1	573166,77	-0,200000003	1,91527581	-0,00055585226288851763	-0,20010305709049152	0,00038325254	-0,63369145918261018	0,023643880349331578	0,63369145918261018
1	0	0	1	0	0	1	574306,79	-0,200000003	1,91868544	-0,00055585436523622931	-0,2001038139214559	0,000383936276	-0,69705900533670656	0,026008208694912848	0,69705900533670656
1	0	0	1	0	0	1	575446,81	-0,200000003	1,93150496	-0,00055585956203275258	-0,20010568472142656	0,000386505126	-0,76042728802730189	0,028372564521661174	0,76042728802730189
1	0	0	1	0	0	1	576586,83	-0,200000003	1,94864833	-0,00055586688478456608	-0,20010832087422522	0,000389940746	-0,82379601270188173	0,030736936839426221	0,82379601270188173
1	0	0	1	0	0	1	577726,86	-0,200000003	1,95984864	-0,00055586941530307142	-0,2001092318437809	0,000392183807	-0,88716500566112717	0,033101319167252845	0,88716500566112717
1	0	0	1	0	0	1	578866,88	-0,200000003	1,96828699	-0,00055586007261938515	-0,20010586853382173	0,000393865776	-0,95053336988113216	0,035465678035973075	0,95053336988113216
1	0	0	1	0	0	1	580006,90	-0,200000003	1,97628725	-0,00055586217572126118	-0,20010662564326864	0,000395468174	-1,0139011386809315	0,037830014688764877	1,0139011386809315
1	0	0	1	0	0	1	581146,92	-0,200000003	1,98421133	-0,00055586109169075885	-0,20010623539961587	0,000397053052	-1,0772691858513163	0,040194361727937485	1,0772691858513163
1	0	0	1	0	0	1	582286,94	-0,200000003	1,99375451	-0,00055586714934226534	-0,20010841610854954	0,000398967066	-1,1406373730556163	0,04255871399196375	1,1406373730556163
1	0	0	1	0	0	1	583426,96	-0,200000003	2,00213575	-0,00055586588534878368	-0,20010796108409974	0,000400643301	-1,20400592146672	0,044923079733101517	1,20400592146672
1	0	0	1	0	0	1	584566,98	-0,200000003	2,00929785	-0,00055586625922967987	-0,20010809567869494	0,000402076752	-1,267375151516952	0,047287470907111629	1,267375151516952
1	0	0	1	0	0	1	585707,00	-0,200000003	2,01415515	-0,00055586129719515642	-0,20010630937049178	0,000403045153	-1,3307442974220661	0,049651858941554253	1,3307442974220661
1	0	0	1	0	0	1	586847,03	-0,200000003	2,01638389	-0,00055586941176570125	-0,20010923057035158	0,000403497019	-1,3941128434607288	0,05201622459417305	1,3941128434607288
1	0	0	1	0	0	1	587987,05	-0,200000003	2,01609826	-0,00055586699690090291	-0,20010836123534858	0,000403438113	-1,4574817590717677	0,054380604036034099	1,4574817590717677
1	0	0	1	0	0	1	589127,07	-0,200000003	2,01293612	-0,00055586921579970253	-0,20010916002391674	0,000402806967	-1,5208511956334893	0,056745002915265542	1,5208511956334893
1	0	0	1	0	0	1	590267,09	-0,200000003	2,00470734	-0,00055587823396093306	-0,20011240650099722	0,000401166821	-1,5842205307012346	0,059109398007620275	1,5842205307012346
1	0	0	1	0	0	1	591407,11	-0,200000003	1,97609687	-0,00055586584610491987	-0,20010794695657408	0,000395432697	-1,647589648947119	0,061473785010059853	1,647589648947119
1	0	0	1	0	0	1	592547,13	-0,200000003	1,9009515	-0,00055586201404862931	-0,20010656744221411	0,000380392885	-1,7109583529010698	0,063838156554710387	1,7109583529010698
1	0	0	1	0	0	1	593687,15	-0,200000003	1,54147327	-0,00055586719970653453	-0,20010843424400506	0,000308461807	-1,7743271461322522	0,066202531430414438	1,7743271461322522
1	1	0	0	0	0	2	594811,66	0,200000003	2,27203012	0,00055536549254341254	0,19992782305681078	0,000454242021	-1,7190431904797235	0,064139812714949683	0,058868572804625677
1	1	0	0	0	0	2	595951,68	0,200000003	2,26202989	0,00055535293912970355	0,19992330390808157	0,000452232489	-1,6557321807880419	0,061777593820795174	0,12217958249630774
1	1	0	0	0	0	2	597091,71	0,200000003	2,26402998	0,00055535586213237709	0,19992435617393939	0,000452634733	-1,5924215216329309	0,05941538800563145	0,18549024165141824
1	1	0	0	0	0	2	598231,73	0,200000003	2,26881099	0,00055536331357475789	0,19992703864282486	0,000453596673	-1,5291104291153034	0,057053166021129542	0,24880133416904589
1	1	0	0	0	0	2	599371,75	0,200000003	2,27382064	0,00055535536973923443	0,19992417890875446	0,000454591733	-1,4657991696469837	0,054690937807472864	0,31211259363736525
1	1	0	0	0	0	2	600511,77	0,200000003	2,27953529	0,00055535401319381267	0,19992369056855498	0,000455733098	-1,4024886911109584	0,052328738731450054	0,37542307217339091
1	1	0	0	0	0	2	601651,79	0,200000003	2,28547835	0,0005553610120746825	0,19992621011835584	0,000456927024	-1,3391776206846826	0,049966517571206195	0,4387341425996663
1	1	0	0	0	0	2	602791,81	0,200000003	2,29134512	0,00055536406497408954	0,19992730913452256	0,00045810247	-1,2758665530499221	0,047604296515117523	0,50204521023442605
1	1	0	0	0	0	2	603931,83	0,200000003	2,29744053	0,00055537155335396531	0,19993000490763882	0,000459327304	-1,2125549131437736	0,045242054106813939	0,56535685014057504
1	1	0	0	0	0	2	605071,86	0,200000003	2,30332637	0,00055535962228394221	0,19992570980308429	0,000460494164	-1,1492430975399968	0,042879805142995616	0,62866866574435149
1	1	0	0	0	0	2	606211,88	0,200000003	2,30949807	0,00055535712523427277	0,19992481087742851	0,000461725955	-1,0859319489881056	0,040517581067780006	0,69197981429624294
1	1	0	0	0	0	2	607351,90	0,200000003	2,31568885	0,00055535658923784896	0,19992461792699405	0,000462963217	-1,022620981055461	0,038155363731711328	0,7552907822288873
1	1	0	0	0	0	2	608491,92	0,200000003	2,32138419	0,00055536186826311872	0,19992651834040506	0,00046410627	-0,95931012122351603	0,035793150429025094	0,81860164206083226
1	1	0	0	0	0	2	609631,94	0,200000003	2,32662249	0,00055536961865590675	0,19992930842476138	0,000465160032	-0,89599920467770086	0,033430935010268122	0,88191255860664742
1	1	0	0	0	0	2	610771,96	0,200000003	2,32999396	0,00055535608532528083	0,19992443652187594	0,000465822726	-0,83268804376234291	0,031068710473754944	0,94522371952200538
1	1	0	0	0	0	2	611911,98	0,200000003	2,33292747	0,00055535685932801824	0,19992471515762918	0,000466409867	-0,76937683846298458	0,02870648428121503	1,0085349248213634
1	1	0	0	0	0	2	613052,01	0,200000003	2,33498454	0,00055536504188097184	0,19992766081206893	0,000466828002	-0,7060657943491849	0,026344264102725037	1,0718459689351621
1	1	0	0	0	0	2	614192,03	0,200000003	2,33660364	0,00055536252299033939	0,19992675403777856	0,00046714957	-0,64275450644732851	0,023982034828174861	1,1351572568370187
1	1	0	0	0	0	2	615332,05	0,200000003	2,33734655	0,00055535562769489158	0,19992427177802941	0,000467292295	-0,57944393407069069	0,021619832250832634	1,1984678292136566
1	1	0	0	0	0	2	616472,07	0,200000003	2,33841324	0,00055536492467588851	0,19992761861903123	0,000467513397	-0,5161333198670777	0,019257628112869718	1,2617784434172696
1	1	0	0	0	0	2	617612,09	0,200000003	2,33953714	0,00055536432481639917	0,19992740268297978	0,000467737584	-0,45282236796013773	0,016895411374741629	1,3250893953242091
1	1	0	0	0	0	2	618752,11	0,200000003	2,34026098	0,00055535966799904902	0,1999257262602137	0,000467878388	-0,38951153423633075	0,014533199046185133	1,3884002290480155
1	1	0	0	0	0	2	619892,13	0,200000003	2,34138489	0,00055536291057119763	0,19992689356426749	0,000468105805	-0,32620078015041523	0,012170989689025438	1,4517109831339325
1	1	0	0	0	0	2	621032,16	0,200000003	2,34327054	0,00055535769284019866	0,19992501521637958	0,000468478393	-0,26289031493163267	0,0098087911098868608	1,5150214483527139
1	1	0	0	0	0	2	622172,18	0,200000003	2,34591818	0,00055535917425072858	0,1999255485141561	0,000469008985	-0,19957968849516742	0,0074465865154997837	1,5783320747891789
1	1	0	0	0	0	2	623312,20	0,200000003	2,34885168	0,00055535656257304883	0,19992460832784624	0,000469593244	-0,13626907311629979	0,0050843823336865402	1,6416426901680461
1	1	0	0	0	0	2	624452,22	0,200000003	2,35208988	0,00055535120591024563	0,19992267996544803	0,000470236118	-0,072958849325130214	0,002722192762536807	1,7049529139592166
1	1	0	0	0	0	2	625592,24	0,200000003	2,356071	0,00055535749397261274	0,19992494362539302	0,000471037347	-0,0096487253595381862	0,00036000691601358835	1,7682630379248086
1	1	0	0	0	0	2	626732,26	0,200000003	2,36069965	0,00055535234698239296	0,19992309074370742	0,000471958367	0,053661801810417101	-0,0020021939746065373	1,8315735650947638
1	1	0	0	0	0	2	627872,28	0,200000003	2,36584282	0,00055535750883983238	0,19992494897749158	0,000472991	0,11697262323476232	-0,0043644058442535802	1,8948843865191098
1	1	0	0	0	0	2	629012,31	0,200000003	2,37153816	0,0005553552986250983	0,19992415330581878	0,000474127766	0,18028341660479408	-0,0067266166671564698	1,9581951798891411
1	1	0	0	0	0	2	629751,60	0,200000003	2,37586212	0,00051537510281552864	0,19992593256716083	0,000474996457	0,22133979922801293	-0,0082584855037222886	1,999251562512361