File: Experimentelles/Rohdaten/Batteriemessungen/AlteZelle/Studenten_Batterietests/LLTO_LP30_Li CV/ZView-Export/LLTO_LP30_Li_04_OCV_C01_loop0.txt
EC-Lab ASCII FILE
Nb header lines : 3
mode	error	time/s	Ewe/V
3	0	8041,06	2,11830497
3	0	8056,06	2,18448782
3	0	8071,06	2,21158361
3	0	8086,06	2,22869253
3	0	8101,06	2,24077964
3	0	8116,06	2,24973512
3	0	8131,06	2,25672388
3	0	8146,06	2,26231861
3	0	8161,06	2,26684427
3	0	8176,06	2,2704339
3	0	8191,06	2,27366114
3	0	8206,06	2,27616239
3	0	8221,06	2,27843475
3	0	8236,06	2,28028703
3	0	8251,06	2,28198647
3	0	8266,06	2,28341866
3	0	8281,06	2,28462148
3	0	8296,06	2,28561449
3	0	8311,06	2,28649282
3	0	8326,06	2,28756213
3	0	8341,06	2,28819227
3	0	8356,06	2,28893709
3	0	8371,06	2,28941441
3	0	8386,06	2,28994894
3	0	8401,06	2,29042649
3	0	8416,06	2,2908082
3	0	8431,06	2,29109478
3	0	8446,06	2,29145741
3	0	8461,06	2,29176307
3	0	8476,06	2,29172492
3	0	8491,06	2,29201126
3	0	8506,06	2,29201126
3	0	8521,06	2,2922976
3	0	8536,06	2,29233599
3	0	8551,06	2,29239321
3	0	8566,06	2,29248857
3	0	8581,06	2,29252672
3	0	8596,06	2,2924695
3	0	8611,06	2,29262233
3	0	8626,06	2,29256511
3	0	8641,06	2,2924695
3	0	8656,06	2,29250765
3	0	8671,06	2,29241228
3	0	8686,06	2,29237413
3	0	8701,06	2,29231668
3	0	8716,06	2,29214501
3	0	8731,06	2,29204941
3	0	8746,06	2,29203033
3	0	8761,06	2,29195404
3	0	8776,06	2,29166746
3	0	8791,06	2,29155302
3	0	8806,06	2,2914958
3	0	8821,06	2,29138112
3	0	8836,06	2,29105639
3	0	8851,06	2,29096103
3	0	8866,06	2,29084659
3	0	8881,06	2,29071283
3	0	8896,06	2,29044557
3	0	8911,06	2,29019713
3	0	8926,06	2,29006362
3	0	8941,06	2,28998709
3	0	8956,06	2,28987265
3	0	8971,06	2,28956699
3	0	8986,06	2,28947163
3	0	9001,06	2,28928065
3	0	9016,06	2,28914714
3	0	9031,06	2,28876519
3	0	9046,06	2,28866959
3	0	9061,06	2,28844047
3	0	9076,06	2,2881732
3	0	9091,06	2,28815413
3	0	9106,06	2,28788686
3	0	9121,06	2,2876575
3	0	9136,06	2,28740931
3	0	9151,06	2,28723764
3	0	9166,06	2,28714204
3	0	9181,06	2,28674102
3	0	9196,06	2,28658819
3	0	9211,06	2,28639746
3	0	9226,06	2,28618741
3	0	9241,06	2,2859199
3	0	9256,06	2,28584361
3	0	9271,06	2,28555727
3	0	9286,06	2,28548074
3	0	9301,06	2,28513718
3	0	9316,06	2,28490806
3	0	9331,06	2,28481245
3	0	9346,06	2,2844305
3	0	9361,06	2,28437328
3	0	9376,06	2,28399134
3	0	9391,06	2,28389597
3	0	9406,06	2,28368592
3	0	9421,06	2,2835331
3	0	9436,06	2,28320861
3	0	9451,06	2,28307486
3	0	9466,06	2,28280759
3	0	9481,06	2,28255939
3	0	9496,06	2,28240657
3	0	9511,06	2,28217745
3	0	9526,06	2,28198647
3	0	9541,06	2,28189087
3	0	9556,06	2,28166175
3	0	9571,06	2,28137541
3	0	9586,06	2,28112721
3	0	9601,06	2,28089809
3	0	9616,06	2,28074527
3	0	9631,06	2,28055429
3	0	9646,06	2,28034425
3	0	9661,06	2,28017235
3	0	9676,06	2,27994323
3	0	9691,06	2,27961874
3	0	9706,06	2,27961874
3	0	9721,06	2,27931309
3	0	9736,06	2,27902675
3	0	9751,06	2,27900767
3	0	9766,06	2,27868295
3	0	9781,06	2,27851105
3	0	9796,06	2,27832031
3	0	9811,06	2,27814841
3	0	9826,06	2,27793837
3	0	9841,06	2,27769017
3	0	9856,06	2,27753735
3	0	9871,06	2,27730823
3	0	9886,06	2,2769835
3	0	9901,06	2,27690721
3	0	9916,06	2,27675438
3	0	9931,06	2,27660155
3	0	9946,06	2,27635336
3	0	9961,06	2,2761817
3	0	9976,06	2,27599072
3	0	9991,06	2,27572322
3	0	10006,06	2,2755897
3	0	10021,06	2,27536058
3	0	10036,06	2,27515054
3	0	10051,06	2,27499771
3	0	10066,06	2,27484488
3	0	10081,06	2,27461576
3	0	10096,06	2,27440572
3	0	10111,06	2,27425289
3	0	10126,06	2,27415752
3	0	10141,06	2,27381372
3	0	10156,06	2,27377558
3	0	10171,06	2,27350831
3	0	10186,06	2,27329826
3	0	10201,06	2,27320266
3	0	10216,06	2,27297354
3	0	10231,06	2,27289724
3	0	10246,06	2,2726109
3	0	10261,06	2,272439
3	0	10276,06	2,27217174
3	0	10291,06	2,27207613
3	0	10306,06	2,2719233
3	0	10321,06	2,27173257
3	0	10336,06	2,27161789
3	0	10351,06	2,27138877
3	0	10366,06	2,27117872
3	0	10381,06	2,27115965
3	0	10396,06	2,27096868
3	0	10411,06	2,27083492
3	0	10426,06	2,2704339
3	0	10441,06	2,27035761
3	0	10456,06	2,27018571
3	0	10471,06	2,26997566
3	0	10486,06	2,26982307
3	0	10501,06	2,26968932
3	0	10516,06	2,26947927
3	0	10531,06	2,26949835
3	0	10546,06	2,2692883
3	0	10561,06	2,26913548
3	0	10576,06	2,26890635
3	0	10591,06	2,26865816
3	0	10606,06	2,26871538
3	0	10621,06	2,26837182
3	0	10636,06	2,26819992
3	0	10651,06	2,26810431
3	0	10666,06	2,26789451
3	0	10681,06	2,2677989
3	0	10696,06	2,26764607
3	0	10711,06	2,26753163
3	0	10726,06	2,26737881
3	0	10741,06	2,26718783
3	0	10756,06	2,26692057
3	0	10771,06	2,26676774
3	0	10786,06	2,26661491
3	0	10801,06	2,26657677
3	0	10816,06	2,26636672
3	0	10831,06	2,26632857
3	0	10846,06	2,26609945
3	0	10861,06	2,26594663
3	0	10876,06	2,26575565
3	0	10891,06	2,26556492
3	0	10906,06	2,26541209
3	0	10921,06	2,26535487
3	0	10936,06	2,26525927
3	0	10951,06	2,26510644
3	0	10966,06	2,26491547
3	0	10981,06	2,26478195
3	0	10996,06	2,26453376
3	0	11011,06	2,26441908
3	0	11026,06	2,26445723
3	0	11041,06	2,26418996
3	0	11056,06	2,26418996
3	0	11071,06	2,26396084
3	0	11086,06	2,26380801
3	0	11101,06	2,2636745
3	0	11116,06	2,26354074
3	0	11131,06	2,26336884
3	0	11146,06	2,26310158
3	0	11161,06	2,26300621
3	0	11176,06	2,26281524
3	0	11191,06	2,2627387
3	0	11206,06	2,26264334
3	0	11221,06	2,26247144
3	0	11236,06	2,26229954
3	0	11251,06	2,26220417
3	0	11266,06	2,2620132
3	0	11281,06	2,26197505
3	0	11296,06	2,26180315
3	0	11311,06	2,26172662
3	0	11326,06	2,26157403
3	0	11341,06	2,26145935
3	0	11356,06	2,26130676
3	0	11371,06	2,26128745
3	0	11386,06	2,2610774
3	0	11401,06	2,26086736
3	0	11416,06	2,2606957
3	0	11431,06	2,26063824
3	0	11446,06	2,26054287
3	0	11461,06	2,26023722
3	0	11476,06	2,2603519
3	0	11491,06	2,2601037
3	0	11506,06	2,26004648
3	0	11521,06	2,25983644
3	0	11536,06	2,25970268
3	0	11551,06	2,25968361
3	0	11566,06	2,25945449
3	0	11581,06	2,25935888
3	0	11596,06	2,25926352
3	0	11611,06	2,25907254
3	0	11626,06	2,2590344
3	0	11641,06	2,25888157