File: Experimentelles/Rohdaten/Batteriemessungen/AlteZelle/Studenten_Batterietests/LLTO_LP30_Li CV/ZView-Export/LLTO_LP30_Li_05_GCPL_C01_loop4.txt
EC-Lab ASCII FILE
Nb header lines : 3
mode	ox/red	error	control changes	Ns changes	counter inc.	Ns	time/s	control/V/mA	Ewe/V	dq/mA.h	<I>/mA	P/W	(Q-Qo)/mA.h	x	Capacity/mA.h
1	0	0	1	1	0	1	24131,15	-0,100000001	4,18821955	0	0	0	0	0	0
1	0	0	1	0	0	1	24191,15	-0,100000001	2,26570582	-0,00027773440224304797	-0,099984386018027571	0,000226535209	-0,001665031757157353	6,2124573518547584E-005	0,001665031757157353
1	0	0	1	0	0	1	24251,15	-0,100000001	1,49006331	-0,00027773397188178365	-0,09998423108797056	0,000148982828	-0,0033314367533272915	0,00012430038443099424	0,0033314367533272915
1	0	0	1	0	0	1	24311,15	-0,100000001	1,40638947	-0,000277734138528092	-0,099984291080642291	0,000140616859	-0,0049978399799913741	0,00018647612932079827	0,0049978399799913741
1	0	0	1	0	0	1	24371,15	-0,100000001	1,35687637	-0,00027773411089761392	-0,099984281133670042	0,000135666312	-0,0066642443654268723	0,00024865191744592182	0,0066642443654268723
1	0	0	1	0	0	1	24431,15	-0,100000001	1,31765544	-0,00027773418260696864	-0,099984306949038054	0,000131744862	-0,0083306501471309773	0,00031082775766770438	0,0083306501471309773
1	0	0	1	0	0	1	24491,15	-0,100000001	1,30083275	-0,00027773405157071024	-0,099984259775984461	0,000130062806	-0,0099970565271498176	0,00037300362021341414	0,0099970565271498176
1	0	0	1	0	0	1	24551,15	-0,100000001	1,26703477	-0,00027773372696919574	-0,099984142919437824	0,000126683386	-0,011663459591281968	0,00043517935903893331	0,011663459591281968
1	0	0	1	0	0	1	24611,15	-0,100000001	1,22779477	-0,00027773342732878195	-0,099984035048887565	0,00012275987	-0,013329860856719373	0,00049735503075273306	0,013329860856719373
1	0	0	1	0	0	1	24671,15	-0,100000001	1,1862824	-0,00027773382964688867	-0,099984179883407744	0,000118609474	-0,014996263168513834	0,00055953074150752141	0,014996263168513834
1	0	0	1	0	0	1	24731,15	-0,100000001	1,14118028	-0,00027773353106114602	-0,099984072392539072	0,00011409985	-0,016662664286386691	0,00062170640771548954	0,016662664286386691
1	0	0	1	0	0	1	24791,15	-0,100000001	1,08987224	-0,00027773287100303504	-0,099983834771616256	0,000108969609	-0,018329062722911078	0,00068388197387874112	0,018329062722911078
1	0	0	1	0	0	1	24851,15	-0,100000001	1,03195739	-0,00027773261810590826	-0,099983743728649498	0,000103178965	-0,019995460726573286	0,00074605752389132288	0,019995460726573286
1	0	0	1	0	0	1	24911,15	-0,100000001	0,979942858	-0,0002777358097111185	-0,099984892706539098	9,79794786E-005	-0,021661865624098778	0,00080823333112321267	0,021661865624098778
1	0	0	1	0	0	1	24971,15	-0,100000001	0,951873302	-0,00027773621305699149	-0,09998503791105513	9,51730908E-005	-0,02332827985631887	0,00087040948664510848	0,02332827985631887
1	0	0	1	0	0	1	25031,15	-0,100000001	0,937609434	-0,00027773573666852381	-0,099984866411204685	9,37467557E-005	-0,024994695263681366	0,00093258568601314739	0,024994695263681366
1	0	0	1	0	0	1	25091,15	-0,100000001	0,927641869	-0,00027773596620352733	-0,099984949043806963	9,2750226E-005	-0,026661111521228787	0,00099476191710272909	0,026661111521228787
1	0	0	1	0	0	1	25151,15	-0,100000001	0,916509569	-0,00027773652665565414	-0,099985150806575066	9,16373465E-005	-0,028327529560997309	0,001056938214689376	0,028327529560997309
1	0	0	1	0	0	1	25211,15	-0,100000001	0,903945088	-0,00027773613976438838	-0,099985011525717696	9,03809632E-005	-0,029993948377417658	0,0011191145412539472	0,029993948377417658
1	0	0	1	0	0	1	25271,15	-0,100000001	0,890349567	-0,0002777367773954239	-0,099985241072893261	8,90218143E-005	-0,03166036699496711	0,0011812908603983774	0,03166036699496711
1	0	0	1	0	0	1	25331,15	-0,100000001	0,876161993	-0,00027773624993819328	-0,099985051188287949	8,76031045E-005	-0,033326783934692589	0,0012434671169409395	0,033326783934692589
1	0	0	1	0	0	1	25391,15	-0,100000001	0,861688077	-0,00027773647834236426	-0,099985133413790477	8,61559965E-005	-0,03499320130567961	0,0013056433895744496	0,03499320130567961
1	0	0	1	0	0	1	25451,15	-0,100000001	0,846851349	-0,00027773623798746205	-0,099985046886024653	8,46724724E-005	-0,036659618962530925	0,0013678196728739413	0,036659618962530925
1	0	0	1	0	0	1	25511,15	-0,100000001	0,831308067	-0,0002777362057728072	-0,099985035288748762	8,31183643E-005	-0,038326036222957958	0,0014299959413823094	0,038326036222957958
1	0	0	1	0	0	1	25571,15	-0,100000001	0,815898478	-0,00027773662407944598	-0,099985185879140544	8,15777603E-005	-0,039992454559033184	0,0014921722500245581	0,039992454559033184
1	0	0	1	0	0	1	25631,15	-0,100000001	0,800240695	-0,00027773705834440061	-0,099985342214526093	8,0012338E-005	-0,041658874004129382	0,0015543486000458701	0,041658874004129382
1	1	0	0	0	0	2	25671,40	0,100000001	0,8491745	0,00027780811915339699	0,10001092410607451	8,49267235E-005	-0,040554491612487424	0,001513142608155791	0,0011112369505725803
1	1	0	0	0	0	2	25731,40	0,100000001	0,873310506	0,00027780773830537997	0,10001078700078674	8,73404715E-005	-0,038887644351513498	0,0014509502957488762	0,0027780842115465142
1	1	0	0	0	0	2	25791,40	0,100000001	0,894983172	0,00027780807480422986	0,10001090814037418	8,95080811E-005	-0,037220796254999174	0,0013887579521668259	0,0044449323080608422
1	1	0	0	0	0	2	25851,40	0,100000001	0,915452957	0,00027780780320076477	0,10001081036312555	9,15551936E-005	-0,035553949033879219	0,0013265656412469163	0,0061117795291807923
1	1	0	0	0	0	2	25911,40	0,100000001	0,934910655	0,00027780818712835514	0,10001094857705974	9,35013013E-005	-0,033887101366944262	0,0012643733136930493	0,007778627196115753
1	1	0	0	0	0	2	25971,40	0,100000001	0,953299046	0,00027780761242864858	0,10001074168516288	9,53401468E-005	-0,032220256586606784	0,001202181093842016	0,0094454719764532314
1	1	0	0	0	0	2	26031,40	0,100000001	0,970408082	0,00027780762982368467	0,10001074794737595	9,7051241E-005	-0,030553409813429818	0,0011399887996354614	0,011112318749630203
1	1	0	0	0	0	2	26091,40	0,100000001	0,994143069	0,00027780749826712739	0,10001070058701475	9,94249422E-005	-0,02888656235276377	0,001077796479777765	0,012779166210296253
1	1	0	0	0	0	2	26151,40	0,100000001	1,05173337	0,00027780746667294038	0,10001068921310731	0,000105184583	-0,027219716982235165	0,0010156042379059072	0,014446011580824848
1	1	0	0	0	0	2	26211,40	0,100000001	1,10798693	0,00027780711297773651	0,10001056188283237	0,000110810397	-0,025552872354624237	0,00095341202375330637	0,016112856208435773
1	1	0	0	0	0	2	26271,40	0,100000001	1,15562868	0,00027780711153853274	0,10001056136471899	0,000115575072	-0,023886028533650422	0,00089121983969742093	0,017779700029409587
1	1	0	0	0	0	2	26331,40	0,100000001	1,19872594	0,00027780656083838806	0,10001036311266453	0,000119885015	-0,022219186251127949	0,00082902771304322355	0,019446542311932061
1	1	0	0	0	0	2	26391,40	0,100000001	1,24167037	0,00027780741906248864	0,10001067207334446	0,000124180282	-0,020552343774929709	0,00076683557916272269	0,021113384788130304
1	1	0	0	0	0	2	26451,40	0,100000001	1,28591323	0,00027780734909988115	0,10001064688680546	0,00012860501	-0,018885500364159197	0,00070464341041207398	0,022780228198900816
1	1	0	0	0	0	2	26511,40	0,100000001	1,33124459	0,00027780717087992365	0,10001058272762	0,000133138543	-0,017218655582761248	0,00064245119052147264	0,024447072980298758
1	1	0	0	0	0	2	26571,40	0,100000001	1,37327242	0,00027780758785828947	0,1000107328398335	0,00013734198	-0,015551811530897664	0,00058025899785077952	0,026113917032162342
1	1	0	0	0	0	2	26631,40	0,100000001	1,37145841	0,00027780738641859757	0,10001066032154354	0,000137160459	-0,013884966924229488	0,00051806678447958099	0,027780761638830509
1	1	0	0	0	0	2	26691,40	0,100000001	1,39630091	0,00027780681242504051	0,1000104536838605	0,00013964469	-0,012218124474767654	0,00045587465159665152	0,029447604088292339
1	1	0	0	0	0	2	26751,40	0,100000001	1,45316553	0,00027780565780111485	0,10001003801924222	0,000145331142	-0,010551287098220712	0,00039368270799099725	0,031114441464839283
1	1	0	0	0	0	2	26811,40	0,100000001	1,97115302	0,00027780611055551299	0,10001020101082755	0,000197135407	-0,0088844510444113523	0,00033149081373846074	0,032781277518648634
1	1	0	0	0	0	2	26871,40	0,100000001	2,89292789	0,00027780644028178515	0,10001031971228694	0,000289322634	-0,0072176139071551219	0,00026929887906106461	0,034448114655904864
1	1	0	0	0	0	2	26931,40	0,100000001	3,35489106	0,00027780640911021165	0,10001030849052034	0,000335523684	-0,0055507745178851578	0,00020710686035800829	0,036114954045174829
1	1	0	0	0	0	2	26991,40	0,100000001	3,59298539	0,00027780667635384534	0,10001040469822963	0,000359335914	-0,0038839342008539962	0,00014491480703893427	0,03778179436220599
1	1	0	0	0	0	2	27051,40	0,100000001	3,7864933	0,00027780706148511837	0,1000105433454896	0,000378689263	-0,0022170922373860838	8,272269228909143E-005	0,039448636325673914
1	1	0	0	0	0	2	27111,40	0,100000001	3,95787001	0,00027780676262122064	0,10001043575448512	0,000395828305	-0,00055025150268241024	2,0530623386094445E-005	0,041115477060377581
1	1	0	0	0	0	2	27171,40	0,100000001	4,11041927	0,00027780591977884374	0,10001013233122576	0,000411083573	0,0011165869162458754	-4,1661359112209222E-005	0,042782315479305869
1	1	0	0	0	0	2	27211,05	0,100000001	4,20005798	0,00026810546967635552	0,10001033101100093	0,000420049182	0,0022181106353790634	-8,2760690087460173E-005	0,043883839198439059