File: Experimentelles/Rohdaten/Batteriemessungen/AlteZelle/Studenten_Batterietests/LLTO_LP30_Li CV/ZView-Export/LLTO_LP30_Li_05_GCPL_C01_loop3.txt
EC-Lab ASCII FILE
Nb header lines : 3
mode	ox/red	error	control changes	Ns changes	counter inc.	Ns	time/s	control/V/mA	Ewe/V	dq/mA.h	<I>/mA	P/W	(Q-Qo)/mA.h	x	Capacity/mA.h
1	0	0	1	1	0	1	21031,49	-0,100000001	4,18816185	0	0	0	0	0	0
1	0	0	1	0	0	1	21091,49	-0,100000001	2,2721982	-0,00027773402131348848	-0,099984248883384499	0,000227184035	-0,0016650301661242022	6,2124514154961574E-005	0,0016650301661242022
1	0	0	1	0	0	1	21151,49	-0,100000001	1,49267936	-0,0002777339607377847	-0,099984227076130854	0,000149244399	-0,0033314338307876358	0,00012430027538711029	0,0033314338307876358
1	0	0	1	0	0	1	21211,49	-0,100000001	1,40715325	-0,00027773401781130166	-0,099984247622597235	0,000140693155	-0,004997836652294112	0,0001864760051599393	0,004997836652294112
1	0	0	1	0	0	1	21271,49	-0,100000001	1,35775471	-0,00027773406731254525	-0,099984265443045146	0,000135754104	-0,0066642400260744627	0,00024865175553884912	0,0066642400260744627
1	0	0	1	0	0	1	21331,49	-0,100000001	1,31777	-0,0002777340953035487	-0,099984275519806502	0,000131756286	-0,0083306457332591027	0,00031082759298021018	0,0083306457332591027
1	0	0	1	0	0	1	21391,49	-0,100000001	1,30165386	-0,00027773410382659898	-0,09998427858810464	0,000130144923	-0,0099970500817964275	0,00037300337972861331	0,0099970500817964275
1	0	0	1	0	0	1	21451,49	-0,100000001	1,26839054	-0,00027773395029248464	-0,099984223315822797	0,000126819039	-0,011663452925294118	0,0004351791103219641	0,011663452925294118
1	0	0	1	0	0	1	21511,49	-0,100000001	1,22924602	-0,00027773403514383568	-0,099984253862309542	0,000122905243	-0,013329855982876795	0,00049735484890311347	0,013329855982876795
1	0	0	1	0	0	1	21571,49	-0,100000001	1,18805826	-0,00027773411675045888	-0,099984283240694246	0,000118787153	-0,014996260858187552	0,00055953065530614163	0,014996260858187552
1	0	0	1	0	0	1	21631,49	-0,100000001	1,14360535	-0,00027773397123482493	-0,099984230855065421	0,000114342503	-0,016662665510655581	0,00062170645339460787	0,016662665510655581
1	0	0	1	0	0	1	21691,49	-0,100000001	1,09300387	-0,00027773402373409933	-0,099984249754804429	0,000109283174	-0,01832906742510271	0,00068388214932383322	0,01832906742510271
1	0	0	1	0	0	1	21751,49	-0,100000001	1,03564274	-0,00027773380962717862	-0,099984172676312013	0,000103547885	-0,019995471483709798	0,00074605792525454925	0,019995471483709798
1	0	0	1	0	0	1	21811,49	-0,100000001	0,983074427	-0,00027773514112540416	-0,099984652015679027	9,8292352E-005	-0,021661877407141331	0,00080823377076437274	0,021661877407141331
1	0	0	1	0	0	1	21871,49	-0,100000001	0,953496397	-0,0002777355092519687	-0,099984784541243866	9,53351337E-005	-0,023328290873698362	0,00087040989771835034	0,023328290873698362
1	0	0	1	0	0	1	21931,49	-0,100000001	0,938354135	-0,00027773551428980294	-0,099984786354864218	9,38211379E-005	-0,024994704668339229	0,00093258603691357696	0,024994704668339229
1	0	0	1	0	0	1	21991,49	-0,100000001	0,928291142	-0,00027773578925306598	-0,099984885341640115	9,28150839E-005	-0,026661117890676989	0,00099476215475540531	0,026661117890676989
1	0	0	1	0	0	1	22051,49	-0,100000001	0,917426109	-0,00027773592982317011	-0,099984935946878195	9,17287907E-005	-0,028327534114281638	0,0010569383845785365	0,028327534114281638
1	0	0	1	0	0	1	22111,49	-0,100000001	0,904957116	-0,00027773534539714458	-0,099984725553506458	9,0481888E-005	-0,02999394771998489	0,0011191145167242466	0,02999394771998489
1	0	0	1	0	0	1	22171,49	-0,100000001	0,891457021	-0,00027773569089298445	-0,09998484993201033	8,91321979E-005	-0,03166036077039015	0,0011812906281510422	0,03166036077039015
1	0	0	1	0	0	1	22231,49	-0,100000001	0,8774032	-0,00027773614086873005	-0,099985011923280704	8,77271668E-005	-0,033326774398130566	0,0012434667611189885	0,033326774398130566
1	0	0	1	0	0	1	22291,49	-0,100000001	0,862929225	-0,0002777359821514951	-0,09998495478507543	8,62799425E-005	-0,034993189856672346	0,0013056429623965955	0,034993189856672346
1	0	0	1	0	0	1	22351,49	-0,100000001	0,84805429	-0,00027773601547090544	-0,099984966780063283	8,47926785E-005	-0,036659605016187962	0,0013678191525171338	0,036659605016187962
1	0	0	1	0	0	1	22411,49	-0,100000001	0,832759321	-0,00027773591343644592	-0,099984930047657434	8,32633814E-005	-0,038326021139107526	0,0014299953785835694	0,038326021139107526
1	0	0	1	0	0	1	22471,49	-0,100000001	0,817349732	-0,00027773648416540694	-0,099985135510085875	8,17228211E-005	-0,039992439849132346	0,0014921717011783802	0,039992439849132346
1	0	0	1	0	0	1	22531,49	-0,100000001	0,801672816	-0,00027773602479447923	-0,099984970136549901	8,01552305E-005	-0,041658857704844627	0,0015543479918976413	0,041658857704844627
1	1	0	0	0	0	2	22577,36	0,100000001	0,84923178	0,0002778089744452801	0,10001123201115616	8,49327189E-005	-0,040710510310552486	0,001518963875549969	0,0011112396289755901
1	1	0	0	0	0	2	22637,36	0,100000001	0,87350142	0,00027780852893284624	0,10001107162667805	8,7359811E-005	-0,039043658200655437	0,0014567713822232131	0,0027780917388726445
1	1	0	0	0	0	2	22697,36	0,100000001	0,895326912	0,00027780891126808192	0,10001120926736456	8,95427293E-005	-0,037376804906930662	0,0013945788447262531	0,0044449450325974163
1	1	0	0	0	0	2	22757,36	0,100000001	0,915643871	0,00027780837968985242	0,10001101789919962	9,15744749E-005	-0,035709951568054547	0,0013323863055446354	0,0061117983714735347
1	1	0	0	0	0	2	22817,36	0,100000001	0,935063422	0,0002778085412681103	0,10001107606737315	9,35166972E-005	-0,03404310270579024	0,0012701939333914237	0,0077786472337378406
1	1	0	0	0	0	2	22877,36	0,100000001	0,953394532	0,00027780828473096093	0,10001098371399826	9,53499257E-005	-0,032376253457536192	0,0012080015468364157	0,0094454964819918899
1	1	0	0	0	0	2	22937,36	0,100000001	0,970732689	0,00027780858321198163	0,10001109116716701	9,70840338E-005	-0,030709400991183494	0,0011458090402098203	0,01111234894834459
1	1	0	0	0	0	2	22997,36	0,100000001	0,995116889	0,00027780874301617347	0,10001114869667677	9,9522782E-005	-0,029042548825054426	0,001083616544784972	0,012779201114473659
1	1	0	0	0	0	2	23057,36	0,100000001	1,05358553	0,0002778086031319367	0,10001109833835093	0,000105370244	-0,027375698195194093	0,001021424106680376	0,014446051744333984
1	1	0	0	0	0	2	23117,36	0,100000001	1,10953355	0,00027780848785448403	0,10001105683846747	0,000110965622	-0,025708847394886003	0,00095923166221614477	0,016112902544642074
1	1	0	0	0	0	2	23177,36	0,100000001	1,1566025	0,0002778085114206705	0,1000110653222947	0,00011567305	-0,024041996495391229	0,00089703921405112525	0,017779753444136848
1	1	0	0	0	0	2	23237,36	0,100000001	1,19990981	0,00027780800394920835	0,10001088263256611	0,000120004042	-0,022375146441191315	0,00083484679742519322	0,019446603498336762
1	1	0	0	0	0	2	23297,36	0,100000001	1,24294972	0,00027780875504265232	0,1000111530262092	0,000124308834	-0,020708295232667987	0,00077265433772990285	0,02111345470686009
1	1	0	0	0	0	2	23357,36	0,100000001	1,28707802	0,0002778085088200039	0,1000110643860547	0,000128722037	-0,019041443109945171	0,00071046184392460032	0,022780306829582902
1	1	0	0	0	0	2	23417,36	0,100000001	1,3324666	0,00027780903408345254	0,1000112534808985	0,000133261652	-0,017374590281236387	0,00064826932377801203	0,02444715965829169
1	1	0	0	0	0	2	23477,36	0,100000001	1,37292874	0,00027780858056454195	0,10001109021408872	0,000137308103	-0,015707738354451424	0,00058607683728341427	0,02611401158507665
1	1	0	0	0	0	2	23537,36	0,100000001	1,37149668	0,00027780848325416448	0,1000110551823524	0,000137164825	-0,01404088760928591	0,00052388439487662682	0,027780862330242163
1	1	0	0	0	0	2	23597,36	0,100000001	1,39750385	0,00027780839778772659	0,1000110244144344	0,000139765791	-0,01237403725897923	0,00046169196720255334	0,029447712680548838
1	1	0	0	0	0	2	23657,36	0,100000001	1,45545697	0,00027780865976048842	0,10001111872462979	0,000145561877	-0,010707185479146621	0,00039949948619094541	0,031114564460381446
1	1	0	0	0	0	2	23717,36	0,100000001	2,01852751	0,00027780867229153715	0,10001112323580739	0,000201875198	-0,0090403335896973453	0,00033730700108939226	0,03278141634983072
1	1	0	0	0	0	2	23777,36	0,100000001	2,9103806	0,00027780889091806278	0,10001120194135757	0,000291070668	-0,0073734807425686541	0,00027511448025553251	0,034448269196959418
1	1	0	0	0	0	2	23837,36	0,100000001	3,35580754	0,00027780816983390189	0,10001094235105651	0,000335617486	-0,005706630242546695	0,00021292204699538074	0,03611511969698137
1	1	0	0	0	0	2	23897,36	0,100000001	3,58097482	0,00027780849258063568	0,10001105853988208	0,000358137069	-0,0040397779505603488	0,00015072954687462826	0,037781971988967712
1	1	0	0	0	0	2	23957,36	0,100000001	3,76157427	0,00027780869166097709	0,10001113020880586	0,000376199285	-0,0023729259780809747	8,8537058675110541E-005	0,039448823961447091
1	1	0	0	0	0	2	24017,36	0,100000001	3,92926574	0,0002778084415006969	0,10001104015110389	0,00039296996	-0,00070607512725463808	2,6344612325975715E-005	0,041115674812273434
1	1	0	0	0	0	2	24077,36	0,100000001	4,07732773	0,00027780867948879802	0,10001112582682134	0,000407778134	0,00096077713125293837	-3,5847886545638803E-005	0,042782527070781011
1	1	0	0	0	0	2	24131,10	0,100000001	4,1999054	0,00010398367460982667	0,1000110160642735	0,000420036813	0,0024538044442477693	-9,1554742990047923E-005	0,044275554383775846