File: Experimentelles/Rohdaten/Batteriemessungen/AlteZelle/Studenten_Batterietests/LLTO_LP30_Li CV/ZView-Export/LLTO_LP30_Li_05_GCPL_C01_loop10.txt
EC-Lab ASCII FILE
Nb header lines : 3
mode	ox/red	error	control changes	Ns changes	counter inc.	Ns	time/s	control/V/mA	Ewe/V	dq/mA.h	<I>/mA	P/W	(Q-Qo)/mA.h	x	Capacity/mA.h
1	0	0	1	1	0	1	42402,74	-0,100000001	4,18848658	0	0	0	0	0	0
1	0	0	1	0	0	1	42462,74	-0,100000001	2,24483514	-0,00027773742603800365	-0,099985473187443866	0,000224450909	-0,0016650491208145539	6,212522137994345E-005	0,0016650491208145539
1	0	0	1	0	0	1	42522,74	-0,100000001	1,48198617	-0,00027773753057089117	-0,09998551081928329	0,000148177147	-0,0033314739833255962	0,00012430177353228725	0,0033314739833255962
1	0	0	1	0	0	1	42582,74	-0,100000001	1,4030478	-0,00027773749594017866	-0,099985498352226803	0,000140284435	-0,0049978990995723693	0,00018647833515185232	0,0049978990995723693
1	0	0	1	0	0	1	42642,74	-0,100000001	1,35374475	-0,00027773707891172835	-0,099985348221984986	0,000135354639	-0,0066643234325184947	0,00024865486754541709	0,0066643234325184947
1	0	0	1	0	0	1	42702,74	-0,100000001	1,31717801	-0,00027773772939501536	-0,099985582395967872	0,000131698805	-0,0083307497211418586	0,00031083147290792902	0,0083307497211418586
1	0	0	1	0	0	1	42762,74	-0,100000001	1,29833138	-0,00027773783962676922	-0,099985622079399194	0,000129814463	-0,0099971769256564006	0,00037300811244357229	0,0099971769256564006
1	0	0	1	0	0	1	42822,74	-0,100000001	1,26250935	-0,00027773796126867334	-0,099985665870484582	0,000126232844	-0,011663604262044976	0,00043518475689961306	0,011663604262044976
1	0	0	1	0	0	1	42882,74	-0,100000001	1,22223818	-0,00027773776722492445	-0,099985596014735117	0,000122206213	-0,013330031957785818	0,00049736141476356992	0,013330031957785818
1	0	0	1	0	0	1	42942,74	-0,100000001	1,17971373	-0,00027773779507560861	-0,099985606040981402	0,000117954391	-0,014996459257382189	0,00055953805784684403	0,014996459257382189
1	0	0	1	0	0	1	43002,74	-0,100000001	1,13258755	-0,00027773771916950742	-0,099985578714785024	0,000113242422	-0,016662886883047421	0,00062171471309618586	0,016662886883047421
1	0	0	1	0	0	1	43062,74	-0,100000001	1,07858717	-0,00027773768215336733	-0,099985565388974618	0,000107843145	-0,018329314329966192	0,00068389136167625677	0,018329314329966192
1	0	0	1	0	0	1	43122,74	-0,100000001	1,01801813	-0,00027773771081036989	-0,099985575705495514	0,000101787125	-0,01999574179647792	0,00074606801098736717	0,01999574179647792
1	0	0	1	0	0	1	43182,74	-0,100000001	0,970490873	-0,00027773916614469555	-0,099986099625851763	9,70355977E-005	-0,021662173978824288	0,00080824483625260864	0,021662173978824288
1	0	0	1	0	0	1	43242,74	-0,100000001	0,947672427	-0,00027773981719919379	-0,099986334005470707	9,4754294E-005	-0,023328611001833152	0,0008704218421294761	0,023328611001833152
1	0	0	1	0	0	1	43302,74	-0,100000001	0,935776293	-0,00027773979024506278	-0,099986324301983565	9,3564835E-005	-0,02499505026899745	0,00093259893173880026	0,02499505026899745
1	0	0	1	0	0	1	43362,74	-0,100000001	0,925617814	-0,00027773987745245296	-0,099986355696643981	9,25491549E-005	-0,026661489525108813	0,00099477602093572442	0,026661489525108813
1	0	0	1	0	0	1	43422,74	-0,100000001	0,913874447	-0,00027773970316929952	-0,099986292954708838	9,13749172E-005	-0,028327928033690602	0,001056953082241315	0,028327928033690602
1	0	0	1	0	0	1	43482,74	-0,100000001	0,900546193	-0,00027773916947634685	-0,099986100825246246	9,00421001E-005	-0,029994364583520954	0,0011191300704632562	0,029994364583520954
1	0	0	1	0	0	1	43542,74	-0,100000001	0,886606932	-0,00027773917300088538	-0,099986102094080115	8,86483685E-005	-0,031660799483886726	0,0011813069971414558	0,031660799483886726
1	0	0	1	0	0	1	43602,74	-0,100000001	0,872075737	-0,00027773947832567821	-0,099986212011005312	8,7195549E-005	-0,033327234637763872	0,0012434839332785059	0,033327234637763872
1	0	0	1	0	0	1	43662,74	-0,100000001	0,857067108	-0,00027773936111107469	-0,099986169813748122	8,56948609E-005	-0,034993671306356486	0,0013056609259316267	0,034993671306356486
1	0	0	1	0	0	1	43722,74	-0,100000001	0,841772079	-0,00027773937337059117	-0,099986174227174054	8,4165571E-005	-0,036660108241701408	0,0013678379285376346	0,036660108241701408
1	0	0	1	0	0	1	43782,74	-0,100000001	0,826247931	-0,00027773957329284813	-0,099986246199186432	8,26134274E-005	-0,038326544826424486	0,0014300149180614702	0,038326544826424486
1	0	0	1	0	0	1	43842,74	-0,100000001	0,810360968	-0,00027773966086986995	-0,099986277726914227	8,10249767E-005	-0,039992980539476819	0,0014921918750620982	0,039992980539476819
1	1	0	0	0	0	2	43891,03	0,100000001	0,832466483	0,00027780659787936342	0,10001037505028701	8,32552832E-005	-0,040778687950960582	0,0015215076749794077	0,00027781208644600378
1	1	0	0	0	0	2	43951,03	0,100000001	0,860593259	0,00027780783989404637	0,10001082217557203	8,60686414E-005	-0,039111843455880582	0,0014593154657717139	0,0019446565815260013
1	1	0	0	0	0	2	44011,03	0,100000001	0,883144379	0,00027780747254606752	0,10001068993029987	8,83238754E-005	-0,037444998958206541	0,001397123256467233	0,0036115010792000429
1	1	0	0	0	0	2	44071,03	0,100000001	0,904053271	0,00027780745373790464	0,10001068315936125	9,04149856E-005	-0,03577815431467911	0,0013349310417207662	0,0052783457227274771
1	1	0	0	0	0	2	44131,03	0,100000001	0,923873782	0,00027780777643745149	0,1000107993311979	9,23973566E-005	-0,03411130937734464	0,0012727388160119637	0,0069451906600619354
1	1	0	0	0	0	2	44191,03	0,100000001	0,942567706	0,00027780732525471187	0,10001063690541194	9,42667975E-005	-0,032444464874517286	0,0012105466065152056	0,0086120351628892941
1	1	0	0	0	0	2	44251,03	0,100000001	0,960421443	0,00027780684998714259	0,10001046580908733	9,60521938E-005	-0,030777622783160154	0,0011483544869936443	0,010278877254246422
1	1	0	0	0	0	2	44311,03	0,100000001	0,977396786	0,0002778074335890512	0,10001067590577403	9,77501113E-005	-0,029110779517154419	0,001086162323644364	0,011945720520252155
1	1	0	0	0	0	2	44371,03	0,100000001	1,01247418	0,00027780703119022973	0,10001053104219858	0,000101258083	-0,027443936838049139	0,0010239701821931288	0,013612563199357437
1	1	0	0	0	0	2	44431,03	0,100000001	1,07460904	0,00027780743751964637	0,10001067732078829	0,000107472377	-0,025777093330463293	0,00096177800983016986	0,015279406706943277
1	1	0	0	0	0	2	44491,03	0,100000001	1,12738729	0,00027780754333941472	0,10001071541590482	0,000112750808	-0,024110249755042816	0,00089958583493620954	0,016946250282363754
1	1	0	0	0	0	2	44551,03	0,100000001	1,17241311	0,00027780731653960218	0,10001063376797245	0,000117253781	-0,022443405150017085	0,00083739362162629286	0,018613094887389485
1	1	0	0	0	0	2	44611,03	0,100000001	1,21535754	0,00027780681460930243	0,10001045307306488	0,000121548459	-0,020776564725019558	0,00077520156427884864	0,020279935312387011
1	1	0	0	0	0	2	44671,03	0,100000001	1,25891304	0,00027780710515752432	0,10001055767042458	0,000125904597	-0,019109722334249264	0,00071300943358577933	0,021946777703157309
1	1	0	0	0	0	2	44731,03	0,100000001	1,30361426	0,00027780735072121024	0,10001064607335134	0,000130375309	-0,017442878365367344	0,00065081724401124352	0,023613621672039229
1	1	0	0	0	0	2	44791,03	0,100000001	1,34955657	0,00027780766753231482	0,10001076012534877	0,000134970178	-0,015776033704274749	0,00058862502860939686	0,025280466333131821
1	1	0	0	0	0	2	44851,03	0,100000001	1,37149668	0,00027780753535032275	0,10001071253983171	0,000137164359	-0,014109189792212202	0,00052643284115486835	0,026947310245194365
1	1	0	0	0	0	2	44911,03	0,100000001	1,37831354	0,00027780743269001443	0,1000106755821208	0,000137846073	-0,012442344366123797	0,00046424059720999942	0,028614155671282771
1	1	0	0	0	0	2	44971,03	0,100000001	1,41577768	0,00027780769180051155	0,10001076886189958	0,000141593016	-0,01077549782168669	0,00040204831153803667	0,030281002215719878
1	1	0	0	0	0	2	45031,03	0,100000001	1,48982775	0,00027780776935815811	0,10001079678265229	0,000148998864	-0,0091086507600219955	0,00033985600656761741	0,031947849277384576
1	1	0	0	0	0	2	45091,03	0,100000001	2,43965316	0,0002778083450264401	0,10001100402323342	0,000243992166	-0,0074418020913357773	0,00027766364163706426	0,03361469794607079
1	1	0	0	0	0	2	45151,03	0,100000001	3,15246606	0,00027780829926166269	0,10001098754791358	0,000315281242	-0,0057749518622202419	0,00021547121848479533	0,035281548175186317
1	1	0	0	0	0	2	45211,03	0,100000001	3,53482246	0,0002778079268468751	0,1000108534785903	0,00035352062	-0,0041081047185730842	0,00015327891045550006	0,036948395318833478
1	1	0	0	0	0	2	45271,03	0,100000001	3,79554415	0,00027780852919237482	0,10001107032296979	0,000379596429	-0,0024412563662741152	9,1086557329780634E-005	0,038615243671132448
1	1	0	0	0	0	2	45331,03	0,100000001	4,00663853	0,00027780808661050266	0,10001091099349613	0,000400707562	-0,00077440665116461491	2,8894153355767962E-005	0,040282093386241952
1	1	0	0	0	0	2	45391,03	0,100000001	4,17560959	0,00027780790164073309	0,1000108444043792	0,000417606236	0,0008924432548271049	-3,329825774031696E-005	0,041948943292233664
1	1	0	0	0	0	2	45402,09	0,100000001	4,20005798	2,9514360639784077E-005	0,10001101101275267	0,000420052034	0,0011997655405790205	-4,4764865420928704E-005	0,042256265577985574