File: Experimentelles/Rohdaten/Batterietests/AlteZelle/Studenten_Batterietests/LLTO_LP30_Li/ZView-Export/LLTO_LP30_Li_06_OCV_C01.txt
EC-Lab ASCII FILE
Nb header lines : 46

Open Circuit Voltage

Run on channel : 1 (SN 6985)
Grouped channel(s) : 1
User :
CE vs. WE compliance from -10 V to 10 V
Electrode connection : standard
Ewe ctrl range : min = 0,00 V, max = 5,00 V
Acquisition started on : 04.22.2015 16:16:38
Saved on :
	File : LLTO_LP30_Li_06_OCV_C01.mpr
	Directory : C:\Hupfer\Studenten Batterietests\LLTO_LP30_Li\
	Host : 192.168.0.2
Device : VMP3 (SN 0324)
Address : 192.168.0.1
EC-Lab for windows v10.33 (software)
Internet server v10.33 (firmware)
Command interpretor v10.32 (firmware)
Electrode material :
Initial state :
Electrolyte :
Comments :
Mass of active material : 0,001 mg
 at x = 0,000
Molecular weight of active material (at x = 0) : 0,001 g/mol
Atomic weight of intercalated ion : 0,001 g/mol
Acquisition started at : xo = 0,000
Number of e- transfered per intercalated ion : 1
for DX = 1, DQ = 26,801 mA.h
Battery capacity : 0,000 A.h
Electrode surface area : 0,001 cm²
Characteristic mass : 0,001 g
tR (h:m:s)          0:15:0,0000
dER/dt (mV/h)       1,0
dER (mV)            1,00
dtR (s)             0,5000
E range min (V)     0,000
E range max (V)     5,000

Number of loops : 1
Loop 0 from point number 0 to 1843

mode	error	time/s	Ewe/V
3	0	456603,5995	3,24233389
3	0	456604,9543	3,23515415
3	0	456606,5033	3,22791719
3	0	456608,1233	3,22066116
3	0	456609,8177	3,21348143
3	0	456611,6233	3,2062254
3	0	456613,5163	3,19904566
3	0	456615,4961	3,1918087
3	0	456617,5935	3,18464828
3	0	456619,7737	3,17750669
3	0	456622,0889	3,17034602
3	0	456624,5519	3,16316652
3	0	456627,1347	3,15604401
3	0	456629,8563	3,14890265
3	0	456632,7313	3,14176106
3	0	456635,8037	3,13461947
3	0	456639,0329	3,12759256
3	0	456642,4491	3,12058473
3	0	456645,8033	3,11428356
3	0	456649,1481	3,10794401
3	0	456652,5891	3,10213923
3	0	456656,0561	3,09629607
3	0	456659,5303	3,09085393
3	0	456662,9943	3,0857749
3	0	456666,4943	3,08075285
3	0	456669,9943	3,07595992
3	0	456673,4943	3,07141542
3	0	456676,9943	3,06706166
3	0	456680,4943	3,06268907
3	0	456683,9943	3,05866003
3	0	456687,4943	3,05465007
3	0	456690,9943	3,0508883
3	0	456694,4943	3,04724121
3	0	456697,9943	3,0437851
3	0	456701,4943	3,0402143
3	0	456704,9943	3,03679633
3	0	456708,4943	3,0336647
3	0	456711,9943	3,03034234
3	0	456715,4943	3,02730608
3	0	456718,9942	3,02421284
3	0	456722,4942	3,02136755
3	0	456725,9942	3,01854157
3	0	456729,4942	3,0157156
3	0	456732,9942	3,01287031
3	0	456736,4942	3,0103116
3	0	456739,9942	3,00771475
3	0	456743,4942	3,00498414
3	0	456746,9942	3,00263548
3	0	456750,4942	3,0001533
3	0	456753,9942	2,99772811
3	0	456757,4942	2,99541759
3	0	456760,9942	2,99304986
3	0	456764,4942	2,99075842
3	0	456767,9942	2,9886198
3	0	456771,4942	2,98644304
3	0	456774,9942	2,98428535
3	0	456778,4942	2,98205113
3	0	456781,9942	2,97991252
3	0	456785,4942	2,97788858
3	0	456788,9942	2,97596002
3	0	456792,4942	2,97393584
3	0	456795,9942	2,97196913
3	0	456799,4942	2,97007871
3	0	456802,9942	2,96807384
3	0	456806,4942	2,96629786
3	0	456809,9942	2,96450305
3	0	456813,4942	2,96255541
3	0	456816,9942	2,96070313
3	0	456820,4942	2,95902276
3	0	456823,9942	2,95713234
3	0	456827,4942	2,95541382
3	0	456830,9942	2,95367622
3	0	456834,4942	2,95207214
3	0	456837,9942	2,95025826
3	0	456841,4942	2,94857788
3	0	456844,9942	2,94687843
3	0	456848,4942	2,94531274
3	0	456851,9941	2,94363236
3	0	456855,4941	2,94204736
3	0	456858,9941	2,94051981
3	0	456862,4941	2,93897319
3	0	456865,9941	2,93746471
3	0	456869,4941	2,93589878
3	0	456872,9941	2,93435216
3	0	456876,4941	2,93276739
3	0	456879,9941	2,9314115
3	0	456883,4941	2,92990303
3	0	456886,9941	2,9282608
3	0	456890,4941	2,92690516
3	0	456893,9941	2,92543483
3	0	456897,4941	2,92411733
3	0	456900,9941	2,922647
3	0	456904,4941	2,92117667
3	0	456907,9941	2,91985917
3	0	456911,4941	2,91850328
3	0	456914,9941	2,91705227
3	0	456918,4941	2,91569638
3	0	456921,9941	2,91441703
3	0	456925,4941	2,91304231
3	0	456928,9941	2,91168642
3	0	456932,4941	2,9103117
3	0	456935,9941	2,90893674
3	0	456939,4941	2,90777206
3	0	456942,9941	2,90643549
3	0	456946,4941	2,9050796
3	0	456949,9941	2,90372396
3	0	456953,4941	2,90263557
3	0	456956,9941	2,90126061
3	0	456960,4941	2,90013409
3	0	456963,9941	2,89881659
3	0	456967,4941	2,89748001
3	0	456970,9941	2,8964107
3	0	456974,4941	2,89501667
3	0	456977,9941	2,89383268
3	0	456981,4941	2,89272523
3	0	456984,9940	2,89135051
3	0	456988,4940	2,89020467
3	0	456991,9940	2,88902092
3	0	456995,4940	2,88793254
3	0	456998,9940	2,88676763
3	0	457002,4940	2,88566017
3	0	457005,9940	2,88449526
3	0	457009,4940	2,88323522
3	0	457012,9940	2,88220406
3	0	457016,4940	2,881001
3	0	457019,9940	2,87991261
3	0	457023,4940	2,87884331
3	0	457026,9940	2,87781215
3	0	457030,4940	2,87657094
3	0	457033,9940	2,87553978
3	0	457037,4940	2,87433696
3	0	457040,9940	2,87334394
3	0	457044,4940	2,87200737
3	0	457047,9940	2,87107158
3	0	457051,4940	2,8701551
3	0	457054,9940	2,86908579
3	0	457058,4940	2,86795926
3	0	457061,9940	2,86685157
3	0	457065,4940	2,86585879
3	0	457068,9940	2,86471295
3	0	457072,4940	2,86368203
3	0	457075,9940	2,86274624
3	0	457079,4940	2,86165786
3	0	457082,9940	2,8607223
3	0	457086,4940	2,85961461
3	0	457089,9940	2,85860276
3	0	457093,4940	2,85772443
3	0	457096,9940	2,85648322
3	0	457100,4940	2,85570025
3	0	457103,9940	2,85468817
3	0	457107,4940	2,85369539
3	0	457110,9940	2,85272145
3	0	457114,4940	2,85153747
3	0	457117,9940	2,85069728
3	0	457121,4939	2,8497808
3	0	457124,9939	2,84884524
3	0	457128,4939	2,84783316
3	0	457131,9939	2,84676385
3	0	457135,4939	2,84598088
3	0	457138,9939	2,84491158
3	0	457142,4939	2,84401417
3	0	457145,9939	2,84311676
3	0	457149,4939	2,84221935
3	0	457152,9939	2,84120727
3	0	457156,4939	2,84017611
3	0	457159,9939	2,83933592
3	0	457163,4939	2,83847666
3	0	457166,9939	2,83757925
3	0	457170,4939	2,83652902
3	0	457173,9939	2,83568883
3	0	457177,4939	2,83482957
3	0	457180,9939	2,83385563
3	0	457184,4939	2,83288193
3	0	457187,9939	2,83219433
3	0	457191,4939	2,83118248
3	0	457194,9939	2,83043766
3	0	457198,4939	2,82942557
3	0	457201,9939	2,8286047
3	0	457205,4939	2,82780266
3	0	457208,9939	2,82690525
3	0	457212,4939	2,82604575
3	0	457215,9939	2,82522488
3	0	457219,4939	2,82423186
3	0	457222,9939	2,82350636
3	0	457226,4939	2,82257056
3	0	457229,9939	2,82165408
3	0	457233,4939	2,82094741
3	0	457236,9939	2,82010746
3	0	457240,4939	2,81917167
3	0	457243,9939	2,81831241
3	0	457247,4939	2,81760597
3	0	457250,9939	2,81674671
3	0	457254,4938	2,8159256
3	0	457257,9938	2,81510448
3	0	457261,4938	2,81437898
3	0	457264,9938	2,81353879
3	0	457268,4938	2,81267953
3	0	457271,9938	2,81187749
3	0	457275,4938	2,81113267
3	0	457278,9938	2,81027341
3	0	457282,4938	2,80952883
3	0	457285,9938	2,80870771
3	0	457289,4938	2,80796289
3	0	457292,9938	2,80718017
3	0	457296,4938	2,80641627
3	0	457299,9938	2,80551887
3	0	457303,4938	2,8047359
3	0	457306,9938	2,80399132
3	0	457310,4938	2,80320835
3	0	457313,9938	2,80250192
3	0	457317,4938	2,80173802
3	0	457320,9938	2,80095506
3	0	457324,4938	2,8001914
3	0	457327,9938	2,79935122
3	0	457331,4938	2,798702
3	0	457334,9938	2,79788089
3	0	457338,4938	2,79717445
3	0	457341,9938	2,79648685
3	0	457345,4938	2,79560852
3	0	457348,9938	2,79497838
3	0	457352,4938	2,79419565
3	0	457355,9938	2,79354644
3	0	457359,4938	2,79282069
3	0	457362,9938	2,79199958
3	0	457366,4938	2,79129314
3	0	457369,9938	2,79052925
3	0	457373,4938	2,78989911
3	0	457376,9938	2,78909731
3	0	457380,4938	2,78852439
3	0	457383,9938	2,78756952
3	0	457387,4937	2,78682494
3	0	457390,9937	2,7861948
3	0	457394,4937	2,78556466
3	0	457397,9937	2,78481984
3	0	457401,4937	2,78413248
3	0	457404,9937	2,78346419
3	0	457408,4937	2,78268123
3	0	457411,9937	2,78208947
3	0	457415,4937	2,78144026
3	0	457418,9937	2,78060007
3	0	457422,4937	2,78002715
3	0	457425,9937	2,77928233
3	0	457429,4937	2,77859497
3	0	457432,9937	2,77786946
3	0	457436,4937	2,77737284
3	0	457439,9937	2,77639914
3	0	457443,4937	2,77597904
3	0	457446,9937	2,77523422
3	0	457450,4937	2,77456594
3	0	457453,9937	2,77378321
3	0	457457,4937	2,77328658
3	0	457460,9937	2,77263737
3	0	457464,4937	2,77191186
3	0	457467,9937	2,77128172
3	0	457471,4937	2,77061343
3	0	457474,9937	2,77011681
3	0	457478,4937	2,76927662
3	0	457481,9937	2,76876116
3	0	457485,4937	2,76811194
3	0	457488,9937	2,76744366
3	0	457492,4937	2,76675606
3	0	457495,9937	2,76604962
3	0	457499,4937	2,76536226
3	0	457502,9937	2,76498032
3	0	457503,5989	2,7647512