File: Experimentelles/Rohdaten/150123_Batterietests/LiCoO2 vs Li 200µm IS + GCPL/ECLab-Export/LiCoO2 vs Li 200µm IS + GCPL_06_PEIS_C03.mpt
EC-Lab ASCII FILE
Nb header lines : 68

Potentio Electrochemical Impedance Spectroscopy

Run on channel : 3 (SN 6987)
Grouped channel(s) : 3
User :
CE vs. WE compliance from -10 V to 10 V
Electrode connection : standard
Ewe ctrl range : min = 0,00 V, max = 5,00 V
Acquisition started on : 01.23.2015 14:58:37
Saved on :
	File : LiCoO2 vs Li 200µm IS + GCPL_06_PEIS_C03.mpr
	Directory : C:\Hupfer\Studenten Batterietests\LiCoO2 vs Li 200µm IS + GCPL\
	Host : 192.168.0.2
Device : VMP3 (SN 0324)
Address : 192.168.0.1
EC-Lab for windows v10.33 (software)
Internet server v10.33 (firmware)
Command interpretor v10.32 (firmware)
Electrode material : LiCoO2 vs Li
Initial state :
Electrolyte : LP30
Comments : 200µm
Mass of active material : 0,001 mg
 at x = 0,000
Molecular weight of active material (at x = 0) : 0,001 g/mol
Atomic weight of intercalated ion : 0,001 g/mol
Acquisition started at : xo = 0,000
Number of e- transfered per intercalated ion : 1
for DX = 1, DQ = 26,801 mA.h
Battery capacity : 0,000 A.h
Electrode surface area : 0,001 cm²
Characteristic mass : 0,001 g
Multi Sine          0
E (V)               0,0000
vs.                 Eoc
tE (h:m:s)          0:00:0,0000
record              0
dI                  0,000
unit dI             mA
dt (s)              0,000
fi                  1,000
unit fi             MHz
ff                  1,000
unit ff             Hz
Sel Nd              1
Nd                  6
Nt                  51
Log                 1
Va (mV)             10,0
pw                  0,10
Na                  2
E range min (V)     0,000
E range max (V)     5,000
I Range             Auto
Bandwidth           5
corr                0
nc cycles           0
goto Ns'            0
nr cycles           0
inc. cycle          0

Number of loops : 1
Loop 0 from point number 0 to 36

freq/Hz	Re(Z)/Ohm	-Im(Z)/Ohm	|Z|/Ohm	Phase(Z)/deg	time/s	<Ewe>/V	<I>/mA	Cs/µF	Cp/µF	cycle number	I Range	|Ewe|/V	|I|/A	Re(Y)/Ohm-1	Im(Y)/Ohm-1	|Y|/Ohm-1	Phase(Y)/deg
1000024,25	0,422123849	-3,66442657	3,68865967	83,428772	71421,4396	4,18189812	0,35263446	-0,0434313789	-0,0428625941	1	9	0,000320349616	8,68471616E-005	0,0310243573	-0,26932013	0,271101177	-83,428772
681286,5	9,42790031	-1,6088444	9,564188	9,68407917	71423,8236	4,18258524	0,251090914	-0,145203233	-0,00410873536	1	10	0,0012221213	0,000127780979	0,103066802	-0,0175880566	0,10455671	-9,68407917
464160,125	9,47400284	-0,921095073	9,5186739	5,55303955	71425,0556	4,18275785	0,251555234	-0,372261286	-0,00348581141	1	10	0,00394796208	0,000414759677	0,104563624	-0,0101660341	0,105056651	-5,55303955
316223,094	9,50409126	-0,240088433	9,50712299	1,44707465	71425,2676	4,18275213	0,251422882	-2,09630919	-0,00133690203	1	10	0,0101725664	0,00106999418	0,105150752	-0,00265627494	0,105184294	-1,44707465
215441,859	9,54344463	0,320987493	9,54884148	-1,92637968	71425,6836	4,18274021	0,252884835	2,30145216	0,00260061934	1	10	0,01011643	0,00105944055	0,104665555	0,00352035719	0,104724742	1,92637968
146777,328	9,65196896	0,884888887	9,69244766	-5,23821211	71426,0996	4,18279457	0,254326284	1,22538459	0,0102136973	1	10	0,0101426439	0,00104644813	0,102742232	0,00941936951	0,103173114	5,23821211
100024,406	9,80646133	1,55234706	9,92856789	-8,99519062	71426,5156	4,18249941	0,224581793	1,02500343	0,0250570402	1	10	0,0101150423	0,00101878156	0,0994807556	0,015747644	0,100719459	8,99519062
68127,4297	10,1238117	2,26374674	10,3738184	-12,6043491	71426,8296	4,18281221	0,253444225	1,03197765	0,0491415337	1	10	0,0107748322	0,00103865634	0,094073385	0,02103539	0,0963965207	12,6043491
46411,125	10,5704212	3,17304492	11,0363951	-16,7087841	71427,1436	4,18280888	0,253530025	1,08074152	0,089334622	1	10	0,0106258029	0,000962796563	0,0867836326	0,0260508396	0,0906092972	16,7087841
31628,4121	11,2907801	4,28713322	12,077302	-20,7918758	71427,4576	4,18280458	0,253888071	1,17375052	0,147900581	1	10	0,0102961119	0,000852517551	0,0774076879	0,0293918625	0,0827999488	20,7918758
21545,4082	12,4250774	5,54565382	13,6064997	-24,0525188	71427,7726	4,18280649	0,253673613	1,33202577	0,221271411	1	10	0,0102448398	0,000752937223	0,067112945	0,0299543496	0,0734942853	24,0525188
14672,8496	14,0665808	6,80841064	15,6276407	-25,8275928	71427,9846	4,18281364	0,254007399	1,59316194	0,302388012	1	10	0,0105634471	0,000675946358	0,057597246	0,0278778244	0,0639891848	25,8275928
10015,2705	16,1500664	7,85014439	17,9568768	-25,9232292	71428,2368	4,18286324	0,258160144	2,02432299	0,386877507	1	10	0,0105368122	0,000586784212	0,0500855781	0,0243453495	0,0556889698	25,9232292
6856,00244	18,495266	8,56478024	20,3821087	-24,8478909	71428,5872	4,18286085	0,255998939	2,71039724	0,478593886	1	10	0,0104507804	0,000512742845	0,0445207395	0,020616645	0,0490626357	24,8478909
4642,42725	20,996603	8,9482317	22,8238506	-23,0825005	71429,0384	4,18285513	0,256218016	3,83122635	0,588890314	1	10	0,00973055232	0,000426332641	0,0403061397	0,0171774775	0,0438138172	23,0825005
3160,05566	23,5081444	9,16597748	25,231884	-21,3011322	71429,4894	4,18285799	0,256021321	5,49473333	0,725111544	1	10	0,0100307465	0,000397542521	0,0369248688	0,0143972458	0,0396323949	21,3011322
2152,93286	26,0544434	9,15016747	27,614481	-19,3509769	71429,9410	4,18285513	0,25632897	8,07905579	0,887043476	1	10	0,0101643354	0,000368079898	0,0341670923	0,011999283	0,0362128839	19,3509769
1468,58972	28,6070042	8,89439774	29,9578209	-17,2713451	71430,3919	4,18285656	0,256231099	12,184371	1,07402837	1	10	0,0102177123	0,000341069943	0,0318751298	0,00991051272	0,0333802663	17,2713451
999,040405	30,9480362	8,38934898	32,0649681	-15,1671572	71430,8429	4,18285561	0,256480008	18,9892941	1,29988146	1	10	0,0102408966	0,000319379615	0,0301003456	0,00815955829	0,0311866831	15,1671572
681,089661	33,1900826	7,71254349	34,0744019	-13,0819349	71431,5384	4,18284512	0,243703589	30,298296	1,55223322	1	11	0,0103155533	0,000302736153	0,0285858996	0,00664264662	0,0293475445	13,0819349
464,553894	35,0119781	6,95021391	35,6951561	-11,2277994	71431,9899	4,18284893	0,243726447	49,2930679	1,8688035	1	11	0,0102938386	0,00028838194	0,0274788216	0,00545480987	0,0280150063	11,2277994
316,315765	36,5801392	6,23286057	37,1073456	-9,66971779	71432,4389	4,18284988	0,243690833	80,7257156	2,27754474	1	11	0,0102793779	0,000277017331	0,0265659615	0,00452655321	0,0269488413	9,66971779
215,344498	37,9316635	5,57947397	38,339817	-8,36779118	71432,8894	4,18284655	0,243649691	132,46254	2,80530143	1	11	0,0102684796	0,000267828087	0,0258048791	0,00379571156	0,0260825455	8,36779118
146,737289	39,115303	4,99744511	39,4332504	-7,28077316	71433,3364	4,18284845	0,243686631	217,035904	3,48580027	1	11	0,0102624577	0,000260248838	0,0251548383	0,00321382983	0,0253593102	7,28077316
99,9040375	40,1562386	4,51237011	40,4089699	-6,41145086	71433,7880	4,18285513	0,243745476	353,046906	4,40236712	1	11	0,010263741	0,000253996608	0,024592204	0,00276343455	0,0247469805	6,41145086
68,1888962	41,0038757	4,12723494	41,2110634	-5,74773407	71434,2501	4,18285561	0,243759543	565,519104	5,6720233	1	11	0,0102583179	0,000248921453	0,0241433345	0,00243014144	0,0242653284	5,74773407
46,3802681	41,7389183	3,88450551	41,9192886	-5,31701612	71434,6888	4,18284941	0,243492573	883,387207	7,58568478	1	11	0,010257801	0,000244703609	0,023752721	0,00221058843	0,0238553658	5,31701612
31,5869217	42,366478	3,84494805	42,5405922	-5,18564367	71435,1187	4,18284512	0,243649691	1310,45581	10,7052364	1	11	0,0102601852	0,000241185771	0,0234107468	0,00212463061	0,0235069599	5,18564367
21,5220375	42,9091454	4,03862858	43,0987854	-5,37686491	71435,5406	4,18285036	0,243721887	1831,06116	16,0783176	1	11	0,0102562234	0,000237970118	0,0231004171	0,00217422168	0,0232025106	5,37686491
14,6851501	43,4488602	4,59821224	43,6914978	-6,04115105	71436,0011	4,18284941	0,24411419	2356,96289	26,105793	1	11	0,0102585629	0,0002347954	0,0227606427	0,00240876898	0,0228877477	6,04115105
9,9904108	44,0411224	5,45713425	44,3779297	-7,06351519	71436,4519	4,18284845	0,243550763	2919,25562	44,1435585	1	11	0,0102562429	0,000231111349	0,0223627035	0,00277096196	0,0225337241	7,06351519
6,81718969	44,7339668	6,82954836	45,2523003	-8,68033695	71436,7914	4,18284893	0,243838444	3418,39893	77,861969	1	11	0,0102588674	0,000226703778	0,0218452029	0,00333511387	0,0220983233	8,68033695
4,63925123	45,5852318	8,95947552	46,4573517	-11,1193743	71437,2763	4,18285465	0,242659271	3829,03809	142,411789	1	11	0,0102594905	0,000220836751	0,0211210381	0,00415120041	0,0215251185	11,1193743
3,16039586	46,9439468	11,5531979	48,3447037	-13,8260784	71437,9703	4,18285751	0,244437218	4358,89502	248,933334	1	11	0,0102558956	0,000212141036	0,0200854614	0,00494315708	0,0206847899	13,8260784
2,1522038	48,0930214	15,5617456	50,5480614	-17,9303341	71439,4845	4,18286037	0,242482871	4752,02197	450,387207	1	12	0,0102614686	0,000203004194	0,0188223161	0,0060904487	0,0197831523	17,9303341
1,46630979	50,5112724	20,6897411	54,5843773	-22,2743206	71440,9461	4,18286371	0,241896003	5246,13379	753,724731	1	12	0,0102587156	0,000187942336	0,0169531964	0,00694413809	0,0183202606	22,2743206
0,998529792	53,2444992	28,6693821	60,472393	-28,3001442	71443,0788	4,18286276	0,2418596	5559,56445	1249,57727	1	12	0,0102578923	0,000169629348	0,0145599693	0,00783978309	0,0165364724	28,3001442