File: Experimentelles/Rohdaten/150123_Batterietests/LiCoO2 vs Li 200µm IS + GCPL/ECLab-Export/LiCoO2 vs Li 200µm IS + GCPL_04_GCPL_C03.mpt
EC-Lab ASCII FILE
Nb header lines : 81

Galvanostatic Cycling with Potential Limitation

Run on channel : 3 (SN 6987)
Grouped channel(s) : 3
User :
CE vs. WE compliance from -10 V to 10 V
Electrode connection : standard
Ewe ctrl range : min = 0,00 V, max = 5,00 V
Acquisition started on : 01.23.2015 14:58:37
Saved on :
	File : LiCoO2 vs Li 200µm IS + GCPL_04_GCPL_C03.mpr
	Directory : C:\Hupfer\Studenten Batterietests\LiCoO2 vs Li 200µm IS + GCPL\
	Host : 192.168.0.2
Device : VMP3 (SN 0324)
Address : 192.168.0.1
EC-Lab for windows v10.33 (software)
Internet server v10.33 (firmware)
Command interpretor v10.32 (firmware)
Electrode material : LiCoO2 vs Li
Initial state :
Electrolyte : LP30
Comments : 200µm
Mass of active material : 0,001 mg
 at x = 0,000
Molecular weight of active material (at x = 0) : 0,001 g/mol
Atomic weight of intercalated ion : 0,001 g/mol
Acquisition started at : xo = 0,000
Number of e- transfered per intercalated ion : 1
for DX = 1, DQ = 26,801 mA.h
Battery capacity : 0,000 A.h
Electrode surface area : 0,001 cm²
Characteristic mass : 0,001 g
Ns                  0                   1                   2
Set I/C             I                   I                   I
Is                  0,000               -300,000            300,000
unit Is             mA                  µA                  µA
vs.                 <None>              <None>              <None>
N                   1                   1                   1
I sign              > 0                 > 0                 > 0
t1 (h:m:s)          0:00:0,0000         10:00:0,0000        10:00:0,0000
I Range             1 mA                1 mA                1 mA
Bandwidth           5                   5                   5
dE1 (mV)            0,00                0,00                0,00
dt1 (s)             0,0000              10,0000             10,0000
EM (V)              0,000               2,000               4,200
tM (h:m:s)          0:00:0,0000         0:00:0,0000         0:00:0,0000
Im                  0,000               0,000               0,000
unit Im             mA                  mA                  mA
E range min (V)     0,000               0,000               0,000
E range max (V)     5,000               5,000               5,000
dq                  0,000               1,000               1,000
unit dq             mA.h                mA.h                mA.h
dtq (s)             0,0000              120,0000            120,0000
dQM                 0,000               0,000               0,000
unit dQM            mA.h                mA.h                mA.h
dxM                 0,000               0,000               0,000
tR (h:m:s)          0:00:0,0000         0:00:0,0000         0:00:0,0000
dER/dt (mV/h)       0,0                 0,1                 0,1
dER (mV)            0,00                5,00                5,00
dtR (s)             1,0000              120,0000            120,0000
EL (V)              pass                4,200               4,200
goto Ns'            0                   0                   0
nc cycles           0                   0                   0

Number of loops : 11
Loop 0 from point number 0 to 492
Loop 1 from point number 493 to 1357
Loop 2 from point number 1358 to 2194
Loop 3 from point number 2195 to 2995
Loop 4 from point number 2996 to 3757
Loop 5 from point number 3758 to 4469
Loop 6 from point number 4470 to 5091
Loop 7 from point number 5092 to 5568
Loop 8 from point number 5569 to 5916
Loop 9 from point number 5917 to 6204
Loop 10 from point number 6205 to 6453

mode	ox/red	error	control changes	Ns changes	counter inc.	Ns	time/s	control/V/mA	Ewe/V	dq/mA.h	<I>/mA	P/W	(Q-Qo)/mA.h	x	Capacity/mA.h
1	0	0	1	1	0	1	7216,8139	-0,300000012	2,89023805	0	0	0	0	0	0
1	1	0	0	0	0	2	8289,0548	0,300000012	3,88844752	0,00083366528076761293	0,3001195047099456	0,00116699899	0,085686405382178202	-0,0031970749914063846	0,087535136099730931
1	1	0	0	0	0	2	9379,0548	0,300000012	3,91136193	0,00083366941201521293	0,30012099195909958	0,00117388181	0,17655632551967462	-0,0065875538876434022	0,17840505623722736
1	1	0	0	0	0	2	10469,0548	0,300000012	3,95547509	0,00083367566979262554	0,30012324475899539	0,00118712999	0,26742598072447082	-0,0099780228988851686	0,26927471144202358
1	1	0	0	0	0	2	11559,0548	0,300000012	4,10032082	0,00083367129212286733	0,30012166879786342	0,00123059517	0,3582960491575401	-0,013368507328229394	0,36014477987509286
1	0	0	1	0	0	1	12630,9196	-0,300000012	4,04408455	-0,00083309378569490381	-0,29991376648127936	0,00121287664	0,36098257120144659	-0,013468745077754851	0,043316725546423296
1	0	0	1	0	0	1	13720,9196	-0,300000012	3,89428234	-0,00083308809401591603	-0,29991171747681901	0,00116794091	0,27017600472031667	-0,010080629991616763	0,1341232920275533
1	0	0	1	0	0	1	14810,9196	-0,300000012	3,82195497	-0,0008330835921416681	-0,29991009680207008	0,00114624284	0,1793694180676271	-0,0066925141528506662	0,22492987868024285
1	0	0	1	0	0	1	15900,9196	-0,300000012	3,75406957	-0,00083308490708967053	-0,29991057018335674	0,00112588517	0,088563452805379712	-0,0033044214989974336	0,31573584394249037
1	1	0	0	0	0	2	16972,0029	0,300000012	3,88631225	0,00083366542057030733	0,30011955503891616	0,00116635836	0,08600407475512192	-0,003208927662821929	0,043350531098029677
1	1	0	0	0	0	2	18062,0029	0,300000012	3,91170502	0,0008336660292430057	0,30011977416109018	0,00117398007	0,17687360491781574	-0,0065993920085747354	0,13422006126072342
1	1	0	0	0	0	2	19152,0029	0,300000012	3,96445417	0,00083366036175356979	0,30011773386486854	0,00118980301	0,26774273167672253	-0,009989841302789865	0,22508918801962998
1	1	0	0	0	0	2	20242,0029	0,300000012	4,11522818	0,0008336593903402487	0,30011738415606874	0,00123505155	0,35861203786061875	-0,013380297291592589	0,31595849420352608
1	0	0	1	0	0	1	21313,1153	-0,300000012	4,01009417	-0,00083308749116626048	-0,29991150045094035	0,0012026733	0,34956844828365626	-0,013042868805240611	0,049147859456863174
1	0	0	1	0	0	1	22403,1153	-0,300000012	3,85003567	-0,00083308059347172582	-0,29990901728087782	0,00115466036	0,25876195938487405	-0,0096547566138042317	0,13995434835564544
1	0	0	1	0	0	1	23493,1153	-0,300000012	3,77395272	-0,00083308016447060634	-0,2999088628404729	0,00113184191	0,16795570225515024	-0,0062666530699830336	0,23076060548536922
1	0	0	1	0	0	1	24583,1152	-0,300000012	3,57942772	-0,00083307377853658458	-0,29990656390419731	0,00107349386	0,077150173204740506	-0,0028785766917799571	0,32156613453577907
1	1	0	0	0	0	2	25654,1280	0,300000012	3,8780005	0,00083366192908750643	0,30011829810509261	0,00116385892	0,11293226026441386	-0,0042136544695040902	0,062524988132640717
1	1	0	0	0	0	2	26744,1280	0,300000012	3,93854666	0,00083367166564199667	0,30012180326475149	0,00118204369	0,20380218199371194	-0,0076041334251333683	0,15339490986193882
1	1	0	0	0	0	2	27834,1280	0,300000012	4,02393293	0,00083366560329827994	0,30011962082098707	0,00120766123	0,294672263632376	-0,010994618347196093	0,24426499150060291
1	1	0	0	0	0	2	28924,1280	0,300000012	4,17543125	0,00083366601211825997	0,30011976799618176	0,00125312945	0,3855423342088601	-0,014385102856514006	0,33513506207708685
1	0	0	1	0	0	1	29996,9240	-0,300000012	3,94104552	-0,00083308567899299994	-0,29991084806855859	0,00118196232	0,3183035927047177	-0,011876335007545016	0,078305354656560026
1	0	0	1	0	0	1	31086,9240	-0,300000012	3,82841754	-0,00083308174766931264	-0,29990943279201408	0,00114817847	0,22749740970840493	-0,0084882342297410586	0,16911153765287286
1	0	0	1	0	0	1	32176,9240	-0,300000012	3,72709441	-0,00083307757977644608	-0,29990793235056397	0,00111778523	0,13669158601865778	-0,0051001468581481555	0,25991736134262
1	1	0	0	0	0	2	33250,7974	0,300000012	3,89229822	0,00083367250351938944	0,30012210070795917	0,00116816477	0,070564542901344832	-0,0026328579706861498	0,011671386291040315
1	1	0	0	0	0	2	34340,7974	0,300000012	3,9602983	0,00083367177678644659	0,30012183908410029	0,00118857203	0,1614347593922113	-0,006023347924265856	0,1025416027819067
1	1	0	0	0	0	2	35430,7974	0,300000012	4,02677298	0,00083367377427717056	0,30012255818075955	0,00120852538	0,25230471913608848	-0,0094138282982701901	0,1934115625257839
1	1	0	0	0	0	2	36520,7974	0,300000012	4,12466478	0,00083366176127062899	0,30011823349841267	0,00123788707	0,34317467942701882	-0,012804308692685814	0,28428152281671408
1	0	0	1	0	0	1	37595,9274	-0,300000012	3,98744631	-0,00083307395439015488	-0,2999066230218361	0,00119586161	0,33946661288689318	-0,01266595574452524	0,046648292236758758
1	0	0	1	0	0	1	38685,9274	-0,300000012	3,84483147	-0,00083306696350706957	-0,29990410630393011	0,00115308072	0,24866185257602301	-0,0092779080490279654	0,13745305254762891
1	0	0	1	0	0	1	39775,9274	-0,300000012	3,70997524	-0,00083308410748342669	-0,29991027813540723	0,00111265969	0,15785663751323594	-0,0058898433861252531	0,22825826761041597
1	1	0	0	0	0	2	40852,5100	0,300000012	3,85520053	0,00083367566958566515	0,30012324049181632	0,00115703524	0,074836719765946982	-0,0027922586335073408	0,0033347085868583789
1	1	0	0	0	0	2	41942,5100	0,300000012	3,99034238	0,00083367328937682842	0,30012238361663674	0,00119759107	0,16570690980755024	-0,0061827476002294746	0,094204898628461709
1	1	0	0	0	0	2	43032,5100	0,300000012	4,00892973	0,00083367171395321677	0,3001218164641376	0,00120316725	0,25657688581955008	-0,0095732285812193395	0,1850748746404615
1	1	0	0	0	0	2	44122,5100	0,300000012	4,11076736	0,00083367528670529523	0,30012310265488346	0,00123373629	0,34744679837485747	-0,012963707194554691	0,2759447871957688
1	0	0	1	0	0	1	45199,5790	-0,300000012	3,92005634	-0,00083306569375594458	-0,29990364919352595	0,00117563922	0,3422339799755241	-0,012769209931366682	0,047481242824871046
1	0	0	1	0	0	1	46289,5790	-0,300000012	3,75065708	-0,0008330772825247712	-0,29990782115029581	0,00112485141	0,25142862302486502	-0,009381139974436695	0,13828659977552995
1	0	0	1	0	0	1	47379,5790	-0,300000012	3,5168035	-0,0008330713821517097	-0,29990569701599763	0,00105470943	0,16062366727323555	-0,0059930849867819174	0,22909155552715942
1	1	0	0	0	0	2	48453,5374	0,300000012	3,87157607	0,00083366530347863846	0,3001195086932937	0,00116193551	0,10615628647886602	-0,0039608337771716518	0,017507037389140989
1	1	0	0	0	0	2	49543,5374	0,300000012	3,97085953	0,00083367104299697613	0,30012157491989139	0,00119174062	0,19702598243322355	-0,0073513043088343411	0,10837673334349859
1	1	0	0	0	0	2	50633,5374	0,300000012	4,06019163	0,0008336777031620343	0,3001239725793079	0,00121856085	0,28789592165419491	-0,010741783917101467	0,19924667256447005
1	1	0	0	0	0	2	51716,0626	0,300000012	4,19994879	0,00021051807623108227	0,3001208114202071	0,00126049202	0,3781425188400617	-0,01410900579594656	0,2894932697503367
1	0	0	1	0	0	1	52796,1132	-0,300000012	3,78052974	-0,00083308254398074419	-0,29990971527444256	0,0011338176	0,28817448693513133	-0,010752177562268208	0,089968031904930214
1	0	0	1	0	0	1	53886,1132	-0,300000012	3,50157166	-0,0008330750219490793	-0,29990700734304819	0,00105014583	0,19736911856789834	-0,007364107179370496	0,18077340027216336
1	0	0	1	0	0	1	54976,1132	-0,300000012	2,18581963	-0,00083308021441102029	-0,29990887662934349	0,000655546726	0,1065637214197477	-0,0039760357226180512	0,27157879742031421
1	1	0	0	0	0	2	56051,1724	0,300000012	4,01689816	0,00083366740919815168	0,30012026675231706	0,0012055526	0,1903444594338513	-0,0071020077023245466	0,086701394552682816
1	1	0	0	0	0	2	57141,1724	0,300000012	4,10737419	0,0008336670550836457	0,30012013927109517	0,00123270566	0,28121428292549085	-0,010492482992574702	0,17757121804432234
1	0	0	1	0	0	1	58221,1108	-0,300000012	3,87159681	-0,0008330807636446423	-0,29990907435344704	0,001161127	0,31957581935950829	-0,011923803494562184	0,025821337688277542
1	0	0	1	0	0	1	59311,1108	-0,300000012	3,57273626	-0,0008330855190886391	-0,29991078631328269	0,00107150211	0,2287702199343681	-0,0085357244905832947	0,11662693711341794
1	0	0	1	0	0	1	60401,1108	-0,300000012	2,89879894	-0,00083308482911189389	-0,29991053792165491	0,000869380368	0,1379644939216548	-0,0051476407634518522	0,20743266312613123
1	1	0	0	0	0	2	61471,4826	0,300000012	4,06244135	0,00083366141854392166	0,30011811011679821	0,00121921219	0,18046702094895872	-0,0067334671920959181	0,065859777744424026
1	1	0	0	0	0	2	62561,4826	0,300000012	4,19043446	0,00083366655998097523	0,30011996103413408	0,00125763298	0,27133651111951219	-0,010123930045688197	0,15672926791497738
1	0	0	1	0	0	1	63638,0356	-0,300000012	3,53830743	-0,00083307302119665677	-0,29990628707217741	0,0010611607	0,19607775838172998	-0,0073159247945723187	0,082470145160652032
1	1	0	0	0	0	2	64717,0438	0,300000012	3,99716735	0,00083366654331650995	0,30011995503492659	0,00119962974	0,13785609525037867	-0,0051435962632829766	0,015839581306003862
1	1	0	0	0	0	2	65807,0491	0,300000012	4,16225815	0,00083367925517426586	0,30011859992976717	0,00124917109	0,22872634747954611	-0,0085340875503067418	0,10670983353517117
1	0	0	1	0	0	1	66885,3309	-0,300000012	3,50231528	-0,00083309444141387942	-0,29990807225441446	0,00105037261	0,18861042747180461	-0,0070373086383898163	0,064977211693847488
1	1	0	0	0	0	2	67960,2942	0,300000012	4,04381609	0,00083367580562829978	0,3001173581177641	0,00121361937	0,15406139282810493	-0,0057482377041622656	0,027511581291577882
1	0	0	1	0	0	1	69038,4940	-0,300000012	3,88997412	-0,00083309528149995546	-0,29990837413128755	0,00116663578	0,23061275424535562	-0,0086044719230399667	0,0066606139838959757
1	0	0	1	0	0	1	70128,5155	-0,300000012	2,53885865	-0,00083310424629350502	-0,29991160082103686	0,000761433155	0,13980518135583886	-0,0052163192864518362	0,097468186873412749
1	1	0	0	0	0	2	71205,3191	0,300000012	4,1687398	0,00083367728926241395	0,30011789279894701	0,00125111337	0,20844258621864496	-0,0077772731458554547	0,079199561214755034
1	1	0	0	0	0	2	71419,2754	0,300000012	4,19996786	0,00032947733538846176	0,30011605946183354	0,00126047782	0,22627924625135936	-0,0084427829133205005	0,097036221247469427