File: Experimentelles/Rohdaten/Batteriemessungen/AlteZelle/Batterietest Li vs LATP/ECLab-Export/LATP vs Li Batterietest Probe1_02_GCPL_C01_loop3.mpt
EC-Lab ASCII FILE
Nb header lines : 3
mode	ox/red	error	control changes	Ns changes	counter inc.	Ns	time/s	control/V/mA	Ewe/V	dq/mA.h	<I>/mA	P/W	(Q-Qo)/mA.h	x	Capacity/mA.h
1	1	0	1	1	0	1	11169,01	0,100000001	1,21288526	0	0	0	0	0	0
1	1	0	1	0	0	1	11227,01	0,100000001	2,08517885	5,5563165792160563E-005	0,10001369963677424	0,000208546451	0,001609956575530911	-6,0069644442695795E-005	0,001609956575530911
1	1	0	1	0	0	1	11285,01	0,100000001	2,51548266	5,5563212304065626E-005	0,10001378335820435	0,00025158294	0,0032212876518685562	-0,00012019057335852682	0,0032212876518685562
1	1	0	1	0	0	1	11343,01	0,100000001	2,55441713	5,5563280770348179E-005	0,10001390659751445	0,000255477236	0,0048326214472310189	-0,00018031160372482957	0,0048326214472310189
1	1	0	1	0	0	1	11401,01	0,100000001	2,57517314	5,5563190196537306E-005	0,1000137435646529	0,000257552718	0,0064439553463937293	-0,0002404326379640591	0,0064439553463937293
1	1	0	1	0	0	1	11459,01	0,100000001	2,59209132	5,5563332224885626E-005	0,10001399921568298	0,000259245426	0,0080552889431622093	-0,00030055366092055334	0,0080552889431622093
1	1	0	1	0	0	1	11517,01	0,100000001	2,60784459	5,5563166175037619E-005	0,10001370032595294	0,000260820176	0,0096666221729059827	-0,00036067467018286227	0,0096666221729059827
1	1	0	1	0	0	1	11575,01	0,100000001	2,62357879	5,5562942384431763E-005	0,1000132975028575	0,000262392772	0,011277952001592994	-0,00042079555254717069	0,011277952001592994
1	1	0	1	0	0	1	11633,01	0,100000001	2,63958025	5,5563085154940685E-005	0,10001355448977667	0,000263993803	0,012889280293842386	-0,00048091637758492576	0,012889280293842386
1	1	0	1	0	0	1	11691,01	0,100000001	2,65605927	5,5563010670658618E-005	0,10001342041806734	0,000265641575	0,01450060958176336	-0,00054103723977252634	0,01450060958176336
1	1	0	1	0	0	1	11749,01	0,100000001	2,673913	5,5563137707610925E-005	0,10001364908458427	0,000267427793	0,016111937173776976	-0,00060115803868354304	0,016111937173776976
1	1	0	1	0	0	1	11807,01	0,100000001	2,69251156	5,5563261003543936E-005	0,10001387101726635	0,000269288517	0,017723269364245475	-0,00066127900916909414	0,017723269364245475
1	1	0	1	0	0	1	11865,01	0,100000001	2,71256113	5,5563158795651462E-005	0,1000136870430577	0,000271293247	0,019334602439328426	-0,0007214000126608	0,019334602439328426
1	1	0	1	0	0	1	11923,01	0,100000001	2,73406196	5,5563213727540442E-005	0,10001378592045904	0,000273443875	0,020945934410511853	-0,00078152097496453018	0,020945934410511853
1	1	0	1	0	0	1	11981,01	0,100000001	2,75766325	5,5563173498958349E-005	0,1000137135090104	0,000275804137	0,022557266025487162	-0,00084164192397765658	0,022557266025487162
1	1	0	1	0	0	1	12039,01	0,100000001	2,78349876	5,5563308345774803E-005	0,10001395623328298	0,000278388732	0,024168597678275408	-0,00090176287440163469	0,024168597678275408
1	1	0	1	0	0	1	12097,01	0,100000001	2,81273293	5,556314987565081E-005	0,1000136709870563	0,000281311746	0,025779931293901722	-0,00096188389806174003	0,025779931293901722
1	1	0	1	0	0	1	12155,01	0,100000001	2,84656906	5,5563078588909574E-005	0,10001354267092054	0,000284695445	0,027391265035187875	-0,001022004926410383	0,027391265035187875
1	1	0	1	0	0	1	12213,01	0,100000001	2,88590455	5,556321388234695E-005	0,10001378619911075	0,000288630254	0,029002597056069152	-0,0010821258905684069	0,029002597056069152
1	1	0	1	0	0	1	12271,01	0,100000001	2,93236256	5,5563170600268576E-005	0,10001370829136875	0,000293276447	0,030613928404566163	-0,0011422468296388698	0,030613928404566163
1	1	0	1	0	0	1	12329,01	0,100000001	2,98867345	5,5563470598724147E-005	0,10001424828859533	0,00029890993	0,032225264033442419	-0,0012023679284160374	0,032225264033442419
1	1	0	1	0	0	1	12387,01	0,100000001	3,058599	5,5563399324400557E-005	0,1000141199948113	0,000305903086	0,033836599612857171	-0,0012624890253477296	0,033836599612857171
1	1	0	1	0	0	1	12445,01	0,100000001	3,14788675	5,5563337589717568E-005	0,10001400887238058	0,000314832781	0,035447938206124902	-0,0013226102347303288	0,035447938206124902
1	1	0	1	0	0	1	12503,01	0,100000001	3,26512957	5,5563378001252813E-005	0,1000140816131449	0,000326558948	0,037059277505675802	-0,0013827314704653027	0,037059277505675802
1	1	0	1	0	0	1	12561,01	0,100000001	3,42287254	5,5563312170406182E-005	0,10001396311761952	0,000342335057	0,038670615673437562	-0,0014428526639717021	0,038670615673437562
1	1	0	1	0	0	1	12619,01	0,100000001	3,63228631	5,5563336786296634E-005	0,10001400742622288	0,000363279512	0,040281952830289242	-0,001502973819759687	0,040281952830289242
1	1	0	1	0	0	1	12677,01	0,100000001	3,90205932	5,5563320282018848E-005	0,10001397771852251	0,00039026048	0,041893289268009626	-0,0015630949487159165	0,041893289268009626
1	1	0	1	0	0	1	12735,01	0,100000001	4,20415401	5,5563222287843629E-005	0,10001380132900498	0,000420473429	0,043504623894675603	-0,001623216010099271	0,043504623894675603
1	1	0	1	0	0	1	12793,01	0,100000001	4,43724585	5,5563184973680314E-005	0,10001373416351018	0,000443785539	0,045115957420009984	-0,0016833370303904627	0,045115957420009984
1	0	0	0	0	0	2	12847,88	-0,100000001	3,4318223	-5,5544382528298432E-005	-0,099979889761413056	0,000343113206	0,044862581530335731	-0,0016738832352792096	0,00088871402063013798
1	0	0	0	0	0	2	12905,88	-0,100000001	2,51723361	-5,5544605551494496E-005	-0,099980291203170829	0,000251673744	0,043251791492865997	-0,0016137824932509747	0,0024995040580998691
1	0	0	0	0	0	2	12963,88	-0,100000001	2,42750669	-5,5544627893302176E-005	-0,099980331418425139	0,000242702925	0,041641001505270874	-0,0015536817530836288	0,0041102940456950003
1	0	0	0	0	0	2	13021,88	-0,100000001	2,40755248	-5,5544635558707846E-005	-0,099980345216155494	0,00024070793	0,040030210388979418	-0,001493580970803105	0,0057210851619864467
1	0	0	0	0	0	2	13079,88	-0,100000001	2,39353681	-5,5544690352761082E-005	-0,099980443845452531	0,000239306872	0,038419415497337216	-0,001433480047659169	0,0073318800536286451
1	0	0	0	0	0	2	13137,88	-0,100000001	2,37910104	-5,5544479420615565E-005	-0,09998006416758601	0,000237862681	0,036808625156635066	-0,0013733792943169251	0,0089426703943308019
1	0	0	0	0	0	2	13195,88	-0,100000001	2,3629849	-5,5544485658407206E-005	-0,099980075395611098	0,000236251406	0,035197834165813043	-0,0013132785167178347	0,010553461385152818
1	0	0	0	0	0	2	13253,88	-0,100000001	2,3442719	-5,5544622501979277E-005	-0,099980321714043789	0,000234381063	0,033587041565804275	-0,0012531776790778232	0,012164253985161584
1	0	0	0	0	0	2	13311,88	-0,100000001	2,32334399	-5,554436790115303E-005	-0,099979863432551014	0,00023228761	0,03197625167953705	-0,0011930769426911573	0,013775043871428818
1	0	0	0	0	0	2	13369,88	-0,100000001	2,30043006	-5,5544224109914566E-005	-0,099979604608318643	0,000229996091	0,030365466741793952	-0,00113297639094058	0,015385828809171914
1	0	0	0	0	0	2	13427,88	-0,100000001	2,27553034	-5,5544081031862234E-005	-0,099979347067821312	0,00022750604	0,028754687569197946	-0,0010728760542953922	0,016996607981767917
1	0	0	0	0	0	2	13485,88	-0,100000001	2,24870181	-5,5544043008652E-005	-0,099979278626042074	0,000224823583	0,02714391033694465	-0,0010127757900469994	0,018607385214021216
1	0	0	0	0	0	2	13543,88	-0,100000001	2,21952486	-5,5543682796259718E-005	-0,099978630243728102	0,000221905051	0,025533138637238762	-0,00095267573222538906	0,020218156913727101
1	0	0	0	0	0	2	13601,88	-0,100000001	2,18750262	-5,5543817535870605E-005	-0,09997887277503063	0,000218704052	0,023922368044498333	-0,00089257571570614835	0,021828927506467533
1	0	0	0	0	0	2	13659,88	-0,100000001	2,15204358	-5,5543576719860237E-005	-0,099978439306206733	0,000215157954	0,022311601392386134	-0,00083247584621704525	0,023439694158579731
1	0	0	0	0	0	2	13717,88	-0,100000001	2,11209702	-5,5543533793340128E-005	-0,099978362038469606	0,000211164006	0,020700838552385837	-0,00077237611896296256	0,025050456998580026
1	0	0	0	0	0	2	13775,88	-0,100000001	2,0665555	-5,5543523463937971E-005	-0,099978343445545498	0,000206610799	0,019090075375127146	-0,00071227637912531571	0,026661220175838717
1	0	0	0	0	0	2	13833,88	-0,100000001	2,01400638	-5,5543562459448973E-005	-0,09997841363746615	0,000201357165	0,017479310763519523	-0,00065217658577018176	0,028271984787446339
1	0	0	0	0	0	2	13891,88	-0,100000001	1,95227253	-5,5543429066737498E-005	-0,099978173530582579	0,000195184635	0,015868549247821024	-0,00059207690792757965	0,029882746303144838
1	0	0	0	0	0	2	13949,88	-0,100000001	1,87934899	-5,55435166147848E-005	-0,099978331117069632	0,000187894169	0,014257785596373027	-0,00053197715039729229	0,031493509954592838
1	0	0	0	0	0	2	14007,88	-0,100000001	1,79409599	-5,5543719376126925E-005	-0,099978696087489882	0,000179371375	0,012647019068418534	-0,00047187728554068006	0,033104276482547334
1	0	0	0	0	0	2	14065,88	-0,100000001	1,6951462	-5,5543985548946592E-005	-0,099979175198571085	0,000169479317	0,011036248998021344	-0,00041177728851076787	0,034715046552944512
1	0	0	0	0	0	2	14123,88	-0,100000001	1,58365107	-5,5543959600230061E-005	-0,099979128490880768	0,000158332055	0,0094254731249762189	-0,00035167707497625952	0,036325822425989638
1	0	0	0	0	0	2	14181,88	-0,100000001	1,46785951	-5,5543772329886752E-005	-0,099978791404258726	0,000146754814	0,0078146996233937715	-0,00029157694992421222	0,037936595927572083
1	0	0	0	0	0	2	14239,88	-0,100000001	1,35420668	-5,5543868159254394E-005	-0,09997896389712256	0,000135392183	0,0062039268885501632	-0,00023147685348022179	0,039547368662415693
1	0	0	0	0	0	2	14297,88	-0,100000001	1,27127743	-5,5543845455265709E-005	-0,099978923029942438	0,000127100953	0,0045931536744893498	-0,00017137673915599315	0,041158141876476493
1	0	0	0	0	0	2	14355,88	-0,100000001	1,23219025	-5,5543987776256269E-005	-0,099979179207728563	0,000123193371	0,0029823796392383763	-0,00011127659419205554	0,042768915911727443
1	0	0	0	0	0	2	14413,88	-0,100000001	1,20927632	-5,5543900056845606E-005	-0,099979021312787456	0,000120902259	0,0013716055372542054	-5,1176446738212627E-005	0,04437969001371161
1	0	0	0	0	0	2	14441,95	-0,100000001	1,20005345	-1,9051464854015245E-006	-0,099978533972360883	0,000119979588	0,00059208715443794061	-2,2091567801725306E-005	0,045159208396527872