File: Experimentelles/Rohdaten/Batteriemessungen/AlteZelle/Batterietest Li vs LATP/ECLab-Export/LATP_LP30_Li_Entladen bis 0k5V_01_OCV_C01.mpt
EC-Lab ASCII FILE
Nb header lines : 43

Open Circuit Voltage

Run on channel : 1 (SN 6985)
Grouped channel(s) : 1
User :
CE vs. WE compliance from -10 V to 10 V
Electrode connection : standard
Ewe ctrl range : min = 0,00 V, max = 5,00 V
Acquisition started on : 07.09.2015 17:19:07
Saved on :
	File : LATP_LP30_Li_Entladen bis 0k5V_01_OCV_C01.mpr
	Directory : C:\Hupfer\Batterietest Li vs LATP\
	Host : 192.168.0.2
Device : VMP3 (SN 0324)
Address : 192.168.0.1
EC-Lab for windows v10.33 (software)
Internet server v10.33 (firmware)
Command interpretor v10.32 (firmware)
Electrode material :
Initial state :
Electrolyte :
Comments :
Mass of active material : 0,001 mg
 at x = 0,000
Molecular weight of active material (at x = 0) : 0,001 g/mol
Atomic weight of intercalated ion : 0,001 g/mol
Acquisition started at : xo = 0,000
Number of e- transfered per intercalated ion : 1
for DX = 1, DQ = 26,801 mA.h
Battery capacity : 0,000 A.h
Electrode surface area : 0,001 cm²
Characteristic mass : 0,001 g
tR (h:m:s)          2:00:30,0000
dER/dt (mV/h)       1,0
dER (mV)            1,00
dtR (s)             10,0000
E range min (V)     0,000
E range max (V)     5,000

mode	error	time/s	Ewe/V
3	0	0,0000	1,1038996
3	0	22,0980	1,10693562
3	0	46,7696	1,10997176
3	0	72,7462	1,11302698
3	0	100,2302	1,116063
3	0	128,3604	1,11913729
3	0	157,7546	1,12194431
3	0	183,4286	1,12475121
3	0	213,1012	1,12732899
3	0	241,1220	1,13013601
3	0	269,9554	1,13244653
3	0	298,6376	1,13490975
3	0	327,7194	1,13744938
3	0	357,7194	1,13979805
3	0	387,7164	1,14216578
3	0	417,7164	1,14443803
3	0	447,1518	1,14655757
3	0	477,1518	1,14882994
3	0	506,9756	1,15073943
3	0	536,9756	1,15291619
3	0	566,9756	1,15480661
3	0	596,9756	1,15679252
3	0	626,9756	1,15866375
3	0	656,9756	1,16059232
3	0	686,9756	1,1623491
3	0	716,9756	1,16410577
3	0	746,9756	1,16586256
3	0	776,9756	1,16756201
3	0	806,9756	1,16920412
3	0	836,9756	1,17076993
3	0	866,9756	1,17239296
3	0	896,9756	1,17399704
3	0	926,9756	1,17554367
3	0	956,9756	1,17707121
3	0	986,9756	1,17863703
3	0	1016,9756	1,18012643
3	0	1046,9756	1,18155861
3	0	1076,9756	1,18293345
3	0	1106,9756	1,18444192
3	0	1136,9756	1,18579769
3	0	1166,9756	1,18711519
3	0	1196,9756	1,18852818
3	0	1226,9756	1,18975031
3	0	1256,9756	1,19112515
3	0	1286,9756	1,19236624
3	0	1316,9756	1,19370294
3	0	1346,9756	1,19502044
3	0	1376,9756	1,19624257
3	0	1406,9756	1,19748378
3	0	1436,9756	1,19861031
3	0	1466,9756	1,20006156
3	0	1496,9756	1,20107353
3	0	1526,9756	1,20239115
3	0	1556,9756	1,20351768
3	0	1586,9756	1,20456791
3	0	1616,9756	1,20571363
3	0	1646,9756	1,20693564
3	0	1676,9756	1,20804322
3	0	1706,9756	1,20905519
3	0	1736,9756	1,21031547
3	0	1766,9756	1,21134663
3	0	1796,9756	1,21241593
3	0	1826,9756	1,21352339
3	0	1856,9756	1,21465003
3	0	1886,9756	1,21573842
3	0	1916,9756	1,21690321
3	0	1946,9756	1,21768618
3	0	1976,9756	1,21885097
3	0	2006,9755	1,21990108
3	0	2036,9755	1,2208941
3	0	2066,9755	1,22188699
3	0	2096,9755	1,22303271
3	0	2126,9755	1,2238729
3	0	2156,9755	1,22494221
3	0	2186,9755	1,22587788
3	0	2216,9755	1,22675622
3	0	2246,9755	1,22788286
3	0	2276,9755	1,22889483
3	0	2306,9755	1,22977316
3	0	2336,9755	1,2307471
3	0	2366,9755	1,23179722
3	0	2396,9755	1,23269475
3	0	2426,9755	1,23347759
3	0	2456,9755	1,23452783
3	0	2486,9755	1,23538709
3	0	2516,9755	1,2363801
3	0	2546,9755	1,23725843
3	0	2576,9755	1,23815584
3	0	2606,9755	1,23907244
3	0	2636,9755	1,23989356
3	0	2666,9755	1,24073374
3	0	2696,9755	1,24170756
3	0	2726,9755	1,24271953
3	0	2756,9755	1,24342608
3	0	2786,9755	1,24428535
3	0	2816,9755	1,24510646
3	0	2846,9755	1,24606121
3	0	2876,9755	1,24676764
3	0	2906,9755	1,24776065
3	0	2936,9755	1,24852443
3	0	2966,9755	1,24949825
3	0	2996,9755	1,25033844
3	0	3026,9755	1,25110221
3	0	3056,9755	1,25188506
3	0	3086,9755	1,25266802
3	0	3116,9755	1,2535845
3	0	3146,9755	1,25436747
3	0	3176,9755	1,25528395
3	0	3206,9755	1,25602865
3	0	3236,9755	1,25673521
3	0	3266,9755	1,25761354
3	0	3296,9755	1,25841558
3	0	3326,9755	1,25914121
3	0	3356,9755	1,26007688
3	0	3386,9755	1,26074517
3	0	3416,9755	1,2616235
3	0	3446,9755	1,26231098
3	0	3476,9755	1,26303649
3	0	3506,9755	1,26391494
3	0	3536,9755	1,26467872
3	0	3566,9755	1,26532793
3	0	3596,9755	1,26624453
3	0	3626,9755	1,26695096
3	0	3656,9755	1,26763844
3	0	3686,9755	1,26838315
3	0	3716,9755	1,26939511
3	0	3746,9755	1,26987255
3	0	3776,9755	1,27069354
3	0	3806,9755	1,27132368
3	0	3836,9755	1,27214479
3	0	3866,9755	1,27290857
3	0	3896,9755	1,27369153
3	0	3926,9755	1,2743789
3	0	3956,9755	1,27514267
3	0	3986,9755	1,27583015
3	0	4016,9755	1,27646029
3	0	4046,9755	1,27722406
3	0	4076,9755	1,27787328
3	0	4106,9755	1,27857983
3	0	4136,9755	1,27936268
3	0	4166,9755	1,27999282
3	0	4196,9755	1,28075659
3	0	4226,9755	1,28146315
3	0	4256,9755	1,28216958
3	0	4286,9755	1,28281891
3	0	4316,9755	1,28342986
3	0	4346,9755	1,28407907
3	0	4376,9755	1,28486204
3	0	4406,9755	1,28549218
3	0	4436,9755	1,28610313
3	0	4466,9755	1,2868861
3	0	4496,9755	1,28757346
3	0	4526,9755	1,28814638
3	0	4556,9755	1,28877652
3	0	4586,9755	1,28957844
3	0	4616,9755	1,29011309
3	0	4646,9755	1,29072416
3	0	4676,9755	1,29152608
3	0	4706,9755	1,29223263
3	0	4736,9755	1,29276729
3	0	4766,9755	1,29355025
3	0	4796,9755	1,29414213
3	0	4826,9755	1,29486775
3	0	4856,9755	1,29547882
3	0	4886,9755	1,29612803
3	0	4916,9755	1,29671991
3	0	4946,9755	1,29750288
3	0	4976,9755	1,29790378
3	0	5006,9755	1,29855311
3	0	5036,9755	1,29910684
3	0	5066,9755	1,29987061
3	0	5096,9755	1,30051982
3	0	5126,9755	1,30109274
3	0	5156,9755	1,30170369
3	0	5186,9755	1,30241024
3	0	5216,9755	1,30302131
3	0	5246,9755	1,30365145
3	0	5276,9755	1,30420518
3	0	5306,9755	1,30487347
3	0	5336,9755	1,30550361
3	0	5366,9755	1,30605733
3	0	5396,9755	1,30674481
3	0	5426,9755	1,30739403
3	0	5456,9755	1,30794775
3	0	5486,9755	1,30852056
3	0	5516,9755	1,30905521
3	0	5546,9755	1,30955172
3	0	5576,9755	1,31020093
3	0	5606,9755	1,3109839
3	0	5636,9755	1,31142306
3	0	5666,9755	1,3121295
3	0	5696,9755	1,31268334
3	0	5726,9755	1,3131988
3	0	5756,9755	1,31390536
3	0	5786,9755	1,31444001
3	0	5816,9755	1,31499374
3	0	5846,9755	1,31564295
3	0	5876,9755	1,31613946
3	0	5906,9755	1,31671226
3	0	5936,9755	1,31738067
3	0	5966,9755	1,31785798
3	0	5996,9755	1,31844997
3	0	6026,9755	1,3190037
3	0	6056,9755	1,3195765
3	0	6086,9755	1,32014942
3	0	6116,9755	1,32062674
3	0	6146,9755	1,32129514
3	0	6176,9755	1,32194436
3	0	6206,9755	1,3224026
3	0	6236,9755	1,3229754
3	0	6266,9755	1,32358646
3	0	6296,9755	1,3240639
3	0	6326,9755	1,32454121
3	0	6356,9755	1,32511413
3	0	6386,9755	1,32566786
3	0	6416,9755	1,32633615
3	0	6446,9755	1,32688987
3	0	6476,9755	1,32725275
3	0	6506,9755	1,32786369
3	0	6536,9755	1,32843661
3	0	6566,9755	1,32895219
3	0	6596,9755	1,32950592
3	0	6626,9755	1,33011699
3	0	6656,9755	1,33053708
3	0	6686,9755	1,33105254
3	0	6706,0973	1,331339
3	0	6736,0973	1,3320837
3	0	6766,0973	1,3325038
3	0	6796,0973	1,3330766
3	0	6826,0973	1,33364952
3	0	6856,0973	1,33427966
3	0	6886,0973	1,33458519
3	0	6916,0973	1,33517706
3	0	6946,0973	1,33559716
3	0	6976,0973	1,33626544
3	0	7006,0973	1,33674288
3	0	7036,0973	1,33733487
3	0	7066,0973	1,33777404
3	0	7096,0973	1,33834684
3	0	7126,0973	1,33880508
3	0	7156,0973	1,33930159
3	0	7186,0973	1,33968353
3	0	7216,0973	1,34038997
3	0	7229,9999	1,34058094