File: Experimentelles/Rohdaten/Batteriemessungen/AlteZelle/Batterietest Li vs LATP/ECLab-Export/LATP_LP30_Li_Aufladen_C01.mpt
EC-Lab ASCII FILE
Nb header lines : 74

Galvanostatic Cycling with Potential Limitation

Run on channel : 1 (SN 6985)
Grouped channel(s) : 1
User :
CE vs. WE compliance from -10 V to 10 V
Electrode connection : standard
Ewe ctrl range : min = 0,00 V, max = 5,00 V
Acquisition started on : 07.06.2015 16:55:48
Saved on :
	File : LATP_LP30_Li_Aufladen_C01.mpr
	Directory : C:\Hupfer\Batterietest Li vs LATP\
	Host : 192.168.0.2
Device : VMP3 (SN 0324)
Address : 192.168.0.1
EC-Lab for windows v10.33 (software)
Internet server v10.33 (firmware)
Command interpretor v10.32 (firmware)
Electrode material :
Initial state :
Electrolyte :
Comments :
Mass of active material : 0,001 mg
 at x = 0,000
Molecular weight of active material (at x = 0) : 0,001 g/mol
Atomic weight of intercalated ion : 0,001 g/mol
Acquisition started at : xo = 0,000
Number of e- transfered per intercalated ion : 1
for DX = 1, DQ = 26,801 mA.h
Battery capacity : 0,000 A.h
Electrode surface area : 0,001 cm²
Characteristic mass : 0,001 g
Ns                  0                   1
Set I/C             I                   I
Is                  0,000               500,000
unit Is             mA                  nA
vs.                 <None>              <None>
N                   1                   1
I sign              > 0                 > 0
t1 (h:m:s)          0:00:0,0000         10:00:0,0000
I Range             1 mA                1 mA
Bandwidth           5                   5
dE1 (mV)            0,00                10,00
dt1 (s)             0,0000              10,0000
EM (V)              0,000               3,800
tM (h:m:s)          0:00:0,0000         24:00:0,0000
Im                  0,000               0,000
unit Im             mA                  mA
E range min (V)     0,000               0,000
E range max (V)     5,000               5,000
dq                  0,000               1,000
unit dq             mA.h                mA.h
dtq (s)             0,0000              120,0000
dQM                 0,000               0,000
unit dQM            mA.h                mA.h
dxM                 0,000               0,000
tR (h:m:s)          0:00:10,0000        0:15:0,0000
dER/dt (mV/h)       0,0                 0,1
dER (mV)            0,00                5,00
dtR (s)             1,0000              120,0000
EL (V)              pass                3,700
goto Ns'            0                   0
nc cycles           0                   0

Modify on : 07.07.2015 15:30
Ns                  0                   1
Is                                      -500,000
EM (V)                                  1,000
EL (V)                                  1,100

mode	ox/red	error	control changes	Ns changes	counter inc.	Ns	time/s	control/V/mA	Ewe/V	dq/mA.h	<I>/mA	P/W	(Q-Qo)/mA.h	x	Capacity/mA.h
3	1	0	0	0	0	0	0,0000	0	3,25884032	0	0	0	0	0	0
1	1	0	0	0	0	1	80,2260	0,000500000024	3,19015574	1,1221165358761533E-006	0,00040396196312035264	1,28870158E-006	7,8917347442143693E-006	-2,9445123385685018E-007	7,8917347442143693E-006
1	1	0	0	0	0	1	270,2260	0,000500000024	3,12553859	1,1245978192730237E-006	0,00040485522516579181	1,26539067E-006	2,9227260600503034E-005	-1,0905083894745834E-006	2,9227260600503034E-005
1	1	0	0	0	0	1	460,2260	0,000500000024	3,15316892	1,1224783235407408E-006	0,00040409220668289453	1,27417104E-006	5,0574696121701792E-005	-1,8870099107028262E-006	5,0574696121701792E-005
1	1	0	0	0	0	1	650,2260	0,000500000024	3,2356782	1,1270844024790373E-006	0,00040575039514257062	1,31287766E-006	7,191690268240119E-005	-2,6833163323844266E-006	7,191690268240119E-005
1	1	0	0	0	0	1	840,2260	0,000500000024	3,3014791	1,1240696235359389E-006	0,00040466507469563763	1,33599326E-006	9,3274697552440768E-005	-3,4802043748462131E-006	9,3274697552440768E-005
1	1	0	0	0	0	1	1030,2260	0,000500000024	3,3648169	1,1281556327545938E-006	0,00040613603805151309	1,36657343E-006	0,00011464321921307338	-4,2774926482873498E-006	0,00011464321921307338
1	1	0	0	0	0	1	1220,2260	0,000500000024	3,42332387	1,1195607046861875E-006	0,00040304186386872141	1,3797428E-006	0,00013593116929680646	-5,071774687864727E-006	0,00013593116929680646
1	1	0	0	0	0	1	1410,2260	0,000500000024	3,47879457	1,1123903154067296E-006	0,00040046052366290637	1,39311987E-006	0,0001571263929431985	-5,8625969793928896E-006	0,0001571263929431985
1	1	0	0	0	0	1	1600,2260	0,000500000024	3,54530191	1,1190625402491099E-006	0,00040286252466684301	1,42826923E-006	0,00017833327328828781	-6,6538541980220454E-006	0,00017833327328828781
1	1	0	0	0	0	1	1790,2260	0,000500000024	3,59788942	1,1146069706818606E-006	0,00040125851958211264	1,4436838E-006	0,00019953364110253302	-7,444868425369216E-006	0,00019953364110253302
1	1	0	0	0	0	1	1980,2259	0,000500000024	3,62781119	1,1101528147668835E-006	0,00039965502341221312	1,44987291E-006	0,00022078336006141523	-8,2377240102761139E-006	0,00022078336006141523
1	1	0	0	0	0	1	2170,2259	0,000500000024	3,65704536	1,1141635694786803E-006	0,00040109889514493523	1,46683681E-006	0,00024199889574897843	-9,0293041713702029E-006	0,00024199889574897843
1	1	0	0	0	0	1	2360,2259	0,000500000024	3,68448472	1,1167579110737682E-006	0,00040203285814276083	1,4812839E-006	0,000263293612039188	-9,8238386672084787E-006	0,000263293612039188
1	1	0	0	0	0	1	2550,2259	0,000500000024	3,70802879	1,1074245691706893E-006	0,00039867285497277152	1,47829041E-006	0,00028440237022300429	-1,061143481607389E-005	0,00028440237022300429
1	1	0	0	0	0	1	2740,2259	0,000500000024	3,71900845	1,1156746681954245E-006	0,00040164289069670566	1,49371328E-006	0,0003055157828884039	-1,139920462990519E-005	0,0003055157828884039
1	1	0	0	0	0	1	2930,2259	0,000500000024	3,72049785	1,0989600119404106E-006	0,00039562561429289146	1,47192429E-006	0,00032639462471618278	-1,2178222290401016E-005	0,00032639462471618278
1	1	0	0	0	0	1	3120,2259	0,000500000024	3,7111032	1,1003629984382618E-006	0,00039613068944487712	1,47008188E-006	0,00034730201172361242	-1,2958305009929014E-005	0,00034730201172361242
1	1	0	0	0	0	1	3310,2259	0,000500000024	3,73730135	1,0970058641638995E-006	0,00039492212107557574	1,47594301E-006	0,00036814874278348557	-1,373612457450089E-005	0,00036814874278348557
1	1	0	0	0	0	1	3500,2259	0,000500000024	3,75393295	1,1025001594421661E-006	0,00039690006742571885	1,48993627E-006	0,00038904415865038272	-1,4515760634680253E-005	0,00038904415865038272
1	1	0	0	0	0	1	3690,2259	0,000500000024	3,78463769	1,1018331136074267E-006	0,0003966599309191463	1,50121411E-006	0,00040992309551606342	-1,5294781841167974E-005	0,00040992309551606342
2	1	0	1	0	0	1	4640,1725	3,79996467	3,79960799	9,2860001085642189E-006	0,00027858000662974858	1,05849483E-006	0,0004965646607850071	-1,8527495132175709E-005	0,0004965646607850071
2	1	0	1	0	0	1	6920,1725	3,79996467	3,79941702	4,5401226935584877E-006	0,00013620368245579896	5,17494584E-007	0,00061482645945743078	-2,2940001845323245E-005	0,00061482645945743078
2	1	0	1	0	0	1	9200,1724	3,79996467	3,7995317	3,7162319641150688E-006	0,00011148696027324626	4,23598237E-007	0,00069137780524799104	-2,5796235481148115E-005	0,00069137780524799104
2	1	0	1	0	0	1	11480,1724	3,79996467	3,79945517	3,421985211628352E-006	0,00010265955759176968	3,90050388E-007	0,000755709163675216	-2,8196524958499194E-005	0,000755709163675216
2	1	0	1	0	0	1	13760,1724	3,79996467	3,79943609	3,7356476647285792E-006	0,00011206943129870366	4,25800636E-007	0,00082122491480815462	-3,0641005720133376E-005	0,00082122491480815462
2	1	0	1	0	0	1	16040,1724	3,79996467	3,79945517	3,1774559925355942E-006	9,5323680930170074E-005	3,62178042E-007	0,00088483263933171968	-3,3014295443602778E-005	0,00088483263933171968
2	1	0	1	0	0	1	18320,1723	3,79996467	3,79945517	2,5846645053832544E-006	7,753993610028864E-005	2,94609521E-007	0,00093925468803963021	-3,5044855252117619E-005	0,00093925468803963021
2	1	0	1	0	0	1	20600,1723	3,79996467	3,79934072	2,200533676277713E-006	6,6016011087600013E-005	2,50817322E-007	0,00098491645061719885	-3,674855700677943E-005	0,00098491645061719885
2	1	0	1	0	0	1	22880,1723	3,79996467	3,79941702	2,1022542893968093E-006	6,3067629445476275E-005	2,39620221E-007	0,0010229851092971011	-3,8168949845982547E-005	0,0010229851092971011
2	1	0	1	0	0	1	25160,1722	3,79996467	3,79945517	1,7947581539938634E-006	5,3842745271700435E-005	2,04573098E-007	0,0010571092451942371	-3,944216723669337E-005	0,0010571092451942371
2	1	0	1	0	0	1	27440,1722	3,79996467	3,79955077	1,7351151382634954E-006	5,2053454778126106E-005	1,97779741E-007	0,0010889737213227331	-4,063107368329136E-005	0,0010889737213227331
2	1	0	1	0	0	1	29720,1722	3,79996467	3,79951262	1,6277292325481891E-006	4,8831877567662669E-005	1,85537331E-007	0,0011211521536925118	-4,1831694259370259E-005	0,0011211521536925118
2	1	0	1	0	0	1	32000,1722	3,79996467	3,79955077	1,4582872210582992E-006	4,3748617161421946E-005	1,66225092E-007	0,00114932482454856	-4,2882854487568243E-005	0,00114932482454856
2	1	0	1	0	0	1	34280,1722	3,79996467	3,79956985	1,3817249785090427E-006	4,1451749278061382E-005	1,57498818E-007	0,0011768487638316662	-4,3909809668550874E-005	0,0011768487638316662
2	1	0	1	0	0	1	36560,1722	3,79996467	3,79947424	1,4038102741193874E-006	4,2114308145137613E-005	1,60012235E-007	0,0012029295999290171	-4,4882920729400115E-005	0,0012029295999290171
2	1	0	1	0	0	1	38840,1722	3,79996467	3,79945517	1,3088901395031421E-006	3,926670411195433E-005	1,49192076E-007	0,0012274925304123907	-4,5799396690946054E-005	0,0012274925304123907
2	1	0	1	0	0	1	41120,1722	3,79996467	3,79958892	1,2642309237640397E-006	3,7926927642276787E-005	1,44106735E-007	0,001252660153110785	-4,6738434532051757E-005	0,001252660153110785
2	1	0	1	0	0	1	43400,1722	3,79996467	3,79947424	1,1019162000681034E-006	3,3057485940468736E-005	1,25601062E-007	0,0012749620390799595	-4,7570547882766246E-005	0,0012749620390799595
2	1	0	1	0	0	1	45680,1722	3,79996467	3,79941702	1,1148066484785582E-006	3,3444199392062074E-005	1,27068461E-007	0,0012967581131588877	-4,8383788711784339E-005	0,0012967581131588877
2	1	0	1	0	0	1	47960,1722	3,79996467	3,79949331	1,2959060634879178E-006	3,8877181832223142E-005	1,47713592E-007	0,0013202177674278925	-4,9259099954401536E-005	0,0013202177674278925
2	1	0	1	0	0	1	50240,1722	3,79996467	3,79932165	1,3422021566791245E-006	4,0266064625372352E-005	1,52983731E-007	0,0013440553643145378	-5,0148512744232154E-005	0,0013440553643145378
2	1	0	1	0	0	1	52520,1722	3,79996467	3,79945517	1,2855905337044331E-006	3,8567715939295021E-005	1,46536308E-007	0,0013672453794834205	-5,1013763389490163E-005	0,0013672453794834205
2	1	0	1	0	0	1	54800,1722	3,79996467	3,79955077	1,1471262211088944E-006	3,4413786569166163E-005	1,30756931E-007	0,0013899794402220906	-5,1862001761919699E-005	0,0013899794402220906
2	1	0	1	0	0	1	57080,1722	3,79996467	3,79951262	1,1154228189988469E-006	3,3462684507636294E-005	1,27141888E-007	0,0014116149329268096	-5,2669251083962086E-005	0,0014116149329268096
2	1	0	1	0	0	1	59360,1722	3,79996467	3,79937887	1,1193353535234742E-006	3,3580060543156486E-005	1,27583377E-007	0,0014341072679118789	-5,3508470343521037E-005	0,0014341072679118789
2	1	0	1	0	0	1	61640,1722	3,79996467	3,79937887	1,0301794480435798E-006	3,0905383383741632E-005	1,17421258E-007	0,0014548450444535168	-5,428222466852665E-005	0,0014548450444535168
2	1	0	1	0	0	1	63920,1722	3,79996467	3,7995317	1,0832958018691619E-006	3,2498873995540986E-005	1,23480504E-007	0,0014761734000572349	-5,5078014292380467E-005	0,0014761734000572349
2	1	0	1	0	0	1	66200,1733	3,79996467	3,7995317	1,1402287030309709E-006	3,4206812178830624E-005	1,29969862E-007	0,0014983631241408765	-5,5905942732342477E-005	0,0014983631241408765
2	1	0	1	0	0	1	68480,1765	3,79996467	3,79949331	1,1206501255589704E-006	3,3619455686863277E-005	1,27736897E-007	0,0015206600306430579	-5,673787029244848E-005	0,0015206600306430579
2	1	0	1	0	0	1	70760,1798	3,79996467	3,79958892	1,0341104664946795E-006	3,1023269620727098E-005	1,17875672E-007	0,0015413970786675539	-5,7511597435500026E-005	0,0015413970786675539
2	1	0	1	0	0	1	73040,1830	3,79996467	3,79949331	9,1839073136527027E-007	2,7551682532771254E-005	1,04682435E-007	0,0015604675755340752	-5,8223143314145677E-005	0,0015604675755340752
2	1	0	1	0	0	1	75320,1863	3,79996467	3,79949331	1,0318076036179618E-006	3,0954183836782099E-005	1,17610213E-007	0,0015795357564597341	-5,893460278192393E-005	0,0015795357564597341
2	1	0	1	0	0	1	77600,1896	3,79996467	3,79960799	9,9000417918033344E-007	2,9700082903996864E-005	1,12848674E-007	0,0015973273702826048	-5,9598431814734438E-005	0,0015973273702826048
2	1	0	1	0	0	1	79880,1928	3,79996467	3,79955077	9,8575741509440218E-007	2,9572680166733242E-005	1,12362898E-007	0,0016160138455301315	-6,0295649330452838E-005	0,0016160138455301315
2	1	0	0	0	0	1	81374,7127	3,79996467	3,79943609	1,1927037596151168E-006	5,4295537620104909E-005	2,06292427E-007	0,0016273387057198554	-6,0718195090567898E-005	0,0016273387057198554