File: Experimentelles/Rohdaten/Batteriemessungen/AlteZelle/Batterietest Li vs LATP/ECLab-Export/LATP vs Li Batterietest Probe1_02_GCPL_C01_loop7.mpt
EC-Lab ASCII FILE
Nb header lines : 3
mode	ox/red	error	control changes	Ns changes	counter inc.	Ns	time/s	control/V/mA	Ewe/V	dq/mA.h	<I>/mA	P/W	(Q-Qo)/mA.h	x	Capacity/mA.h
1	1	0	1	1	0	1	24073,89	0,100000001	1,21246517	0	0	0	0	0	0
1	1	0	1	0	0	1	24129,89	0,100000001	2,11149168	5,5562865215043226E-005	0,10001315859795646	0,000211176957	0,0015543889541540691	-5,7996341777664282E-005	0,0015543889541540691
1	1	0	1	0	0	1	24185,89	0,100000001	2,51523423	5,5562966088453926E-005	0,10001334017009794	0,000251556979	0,0031101523560192006	-0,0001160439660473929	0,0031101523560192006
1	1	0	1	0	0	1	24241,89	0,100000001	2,55197287	5,5562787159863443E-005	0,10001301809863115	0,000255230494	0,0046659143553348864	-0,00017409153798611597	0,0046659143553348864
1	1	0	1	0	0	1	24297,89	0,100000001	2,57202268	5,5562799494713542E-005	0,10001304030136162	0,000257235806	0,0062216748462912934	-0,0002321390536459263	0,0062216748462912934
1	1	0	1	0	0	1	24353,89	0,100000001	2,58825326	5,5562894919680224E-005	0,10001321206630371	0,000258859509	0,0077774361556289907	-0,00029018659984064301	0,0077774361556289907
1	1	0	1	0	0	1	24409,89	0,100000001	2,60343361	5,5563016857951878E-005	0,10001343155519536	0,000260378321	0,0093331993143146227	-0,00034823421503701747	0,0093331993143146227
1	1	0	1	0	0	1	24465,89	0,100000001	2,61848044	5,5563056040555238E-005	0,10001350208388226	0,000261883397	0,010888962706210056	-0,00040628183893476326	0,010888962706210056
1	1	0	1	0	0	1	24521,89	0,100000001	2,63394737	5,5562884673062298E-005	0,10001319362239123	0,00026342948	0,012444723824247478	-0,00046432937799180941	0,012444723824247478
1	1	0	1	0	0	1	24577,89	0,100000001	2,65002537	5,556284778358208E-005	0,10001312722132603	0,000265037321	0,014000484939947482	-0,00052237691696164326	0,014000484939947482
1	1	0	1	0	0	1	24633,89	0,100000001	2,66707706	5,556278953411513E-005	0,10001302237228424	0,000266742427	0,015556245866522365	-0,00058042444887496474	0,015556245866522365
1	1	0	1	0	0	1	24689,89	0,100000001	2,68525529	5,5563041889833075E-005	0,10001347661258205	0,000268561707	0,017112008855481286	-0,00063847205773860762	0,017112008855481286
1	1	0	1	0	0	1	24745,89	0,100000001	2,70469403	5,5562856237921446E-005	0,10001314243913707	0,000270504941	0,018667770027173235	-0,00069651959879757619	0,018667770027173235
1	1	0	1	0	0	1	24801,89	0,100000001	2,72554564	5,5562987041142253E-005	0,10001337788493738	0,000272591016	0,020223532211382528	-0,00075456717763492826	0,020223532211382528
1	1	0	1	0	0	1	24857,89	0,100000001	2,74819207	5,5562883878747616E-005	0,10001319219262478	0,000274855469	0,021779293077969888	-0,00081261470731003456	0,021779293077969888
1	1	0	1	0	0	1	24913,89	0,100000001	2,77309203	5,5563043357597459E-005	0,10001347925455798	0,000277346582	0,023335056914549901	-0,00087066234779955994	0,023335056914549901
1	1	0	1	0	0	1	24969,89	0,100000001	2,80098963	5,5563134291933645E-005	0,10001364293636509	0,000280137174	0,024890821074057949	-0,00092871000033796442	0,024890821074057949
1	1	0	1	0	0	1	25025,89	0,100000001	2,83301187	5,5563117354280416E-005	0,1000136124485889	0,000283339759	0,026446587424636883	-0,00098675773462816947	0,026446587424636883
1	1	0	1	0	0	1	25081,89	0,100000001	2,87041879	5,5562964435666803E-005	0,10001333719508107	0,000287080155	0,028002353153777376	-0,0010448054457316709	0,028002353153777376
1	1	0	1	0	0	1	25137,89	0,100000001	2,91435599	5,5562939270089069E-005	0,10001329189704061	0,000291474338	0,0295581178877136	-0,0011028531197027632	0,0295581178877136
1	1	0	1	0	0	1	25193,89	0,100000001	2,96724892	5,5563055222233133E-005	0,10001350061090245	0,000296764949	0,03111387997348169	-0,0011609006948671416	0,03111387997348169
1	1	0	1	0	0	1	25249,89	0,100000001	3,03243899	5,5562946147802803E-005	0,10001330427692547	0,000303284236	0,032669641863994483	-0,0012189482627462826	0,032669641863994483
1	1	0	1	0	0	1	25305,89	0,100000001	3,11527276	5,5563008544345696E-005	0,10001341659070403	0,000311569078	0,034225404703499731	-0,0012769958660336077	0,034225404703499731
1	1	0	1	0	0	1	25361,89	0,100000001	3,22355986	5,556297305723031E-005	0,10001335271389557	0,000322399021	0,035781166730671501	-0,0013350434390116784	0,035781166730671501
1	1	0	1	0	0	1	25417,89	0,100000001	3,36881495	5,5562769531789754E-005	0,10001298636809814	0,000336925237	0,037336926994733299	-0,0013930909462057462	0,037336926994733299
1	1	0	1	0	0	1	25473,89	0,100000001	3,5639267	5,5562910529888339E-005	0,10001324016467864	0,00035643985	0,038892686286248486	-0,0014511384171127917	0,038892686286248486
1	1	0	1	0	0	1	25529,89	0,100000001	3,82222342	5,5562971678458982E-005	0,10001335023210714	0,000382273371	0,040448446745292403	-0,0015091859315819043	0,040448446745292403
1	1	0	1	0	0	1	25585,89	0,100000001	4,13946629	5,5562363635334701E-005	0,10001225575447019	0,000413997361	0,042004205302335526	-0,0015672333750848099	0,042004205302335526
1	1	0	1	0	0	1	25641,89	0,100000001	4,41767359	5,5562852375623251E-005	0,10001313548700022	0,000441825396	0,043559966132847584	-0,0016252809034138982	0,043559966132847584
1	0	0	0	0	0	2	25695,54	-0,100000001	3,47526312	-5,5544784012768006E-005	-0,099980612433467021	0,000347458932	0,043383757045036179	-0,001618706305432016	0,00083317863553886618
1	0	0	0	0	0	2	25751,54	-0,100000001	2,52298117	-5,5544885268227923E-005	-0,099980794693297088	0,000252249651	0,041828500153743757	-0,0015606775797527661	0,0023884355268312829
1	0	0	0	0	0	2	25807,54	-0,100000001	2,43090558	-5,5544823216481338E-005	-0,099980683000151898	0,0002430436	0,040273243213906675	-0,0015026488522622496	0,0039436924666683699
1	0	0	0	0	0	2	25863,54	-0,100000001	2,4109323	-5,5544923783176474E-005	-0,099980864020205325	0,000241047092	0,038717986891755424	-0,0014446201478184218	0,0054989487888196269
1	0	0	0	0	0	2	25919,54	-0,100000001	2,39771843	-5,5545044245405331E-005	-0,099981080852219891	0,000239726476	0,037162728779585619	-0,001386591376586595	0,007054206900989431
1	0	0	0	0	0	2	25975,54	-0,100000001	2,38419938	-5,5545012777464256E-005	-0,099981024209925261	0,000238374691	0,035607467267319354	-0,0013285624784925978	0,0086094684132556941
1	0	0	0	0	0	2	26031,54	-0,100000001	2,36882806	-5,5544896937078899E-005	-0,099980815697229107	0,000236837368	0,034052208016472352	-0,0012705336647751939	0,010164727664102694
1	0	0	0	0	0	2	26087,54	-0,100000001	2,35141349	-5,5544894029696781E-005	-0,099980810463941222	0,000235096231	0,032496949613378074	-0,0012125048826885837	0,011719986067196976
1	0	0	0	0	0	2	26143,54	-0,100000001	2,3315928	-5,554497248472439E-005	-0,099980951682992614	0,000233114872	0,030941691501237242	-0,0011544761114578381	0,0132752441793378
1	0	0	0	0	0	2	26199,54	-0,100000001	2,30965281	-5,5544861067086458E-005	-0,099980751131241907	0,000230920821	0,029386435095396102	-0,0010964474038914278	0,01483050058517895
1	0	0	0	0	0	2	26255,54	-0,100000001	2,2857461	-5,5544869950248134E-005	-0,09998076712093312	0,000228530655	0,027831179694422624	-0,0010384187338179813	0,016385755986152429
1	0	0	0	0	0	2	26311,54	-0,100000001	2,26019692	-5,5544792247729165E-005	-0,099980627256397299	0,000225975906	0,026275923637331149	-0,00098039003926389018	0,017941012043243904
1	0	0	0	0	0	2	26367,54	-0,100000001	2,23247123	-5,5544900610629056E-005	-0,099980822309619456	0,000223204304	0,024720668160154787	-0,00092236136634721165	0,019496267520420266
1	0	0	0	0	0	2	26423,54	-0,100000001	2,20230126	-5,554496427377065E-005	-0,099980936903275712	0,000220188143	0,02316540956729216	-0,00086433257718008934	0,021051526113282896
1	0	0	0	0	0	2	26479,54	-0,100000001	2,16888523	-5,5544954583048819E-005	-0,099980919459976218	0,00021684714	0,021610150323940445	-0,00080630376374234458	0,022606785356634608
1	0	0	0	0	0	2	26535,54	-0,100000001	2,1316309	-5,5545157580326003E-005	-0,099981284855079565	0,000213123203	0,020054890024055014	-0,0007482749108839063	0,024162045656520038
1	0	0	0	0	0	2	26591,54	-0,100000001	2,08912563	-5,5545067523088723E-005	-0,099981122752050483	0,000208873127	0,018499627775706976	-0,00069024598532570854	0,025717307904868077
1	0	0	0	0	0	2	26647,54	-0,100000001	2,04052925	-5,5544987568424806E-005	-0,099980978833653696	0,000204014112	0,01694436669719281	-0,00063221710341558541	0,027272568983382243
1	0	0	0	0	0	2	26703,54	-0,100000001	1,98377907	-5,5544916779216794E-005	-0,099980851413077747	0,000198339927	0,015389106041642323	-0,00057418823728680576	0,02882782963893273
1	0	0	0	0	0	2	26759,54	-0,100000001	1,91687059	-5,5544997059636646E-005	-0,099980995917835226	0,00019165063	0,013833848631630966	-0,00051615949225345478	0,03038308704894409
1	0	0	0	0	0	2	26815,54	-0,100000001	1,83774126	-5,5544875810957619E-005	-0,09998077767021033	0,000183738797	0,012278592341667461	-0,00045813078901059501	0,031938343338907597
1	0	0	0	0	0	2	26871,54	-0,100000001	1,74517488	-5,554480557640393E-005	-0,099980651248012173	0,000174483721	0,010723336623338574	-0,00040010210709619142	0,033493599057236486
1	0	0	0	0	0	2	26927,54	-0,100000001	1,63830066	-5,5544656386805907E-005	-0,099980382706732467	0,000163797929	0,0091680817753513318	-0,00034207345765540486	0,035048853905223725
1	0	0	0	0	0	2	26983,54	-0,100000001	1,52264285	-5,5544922229730426E-005	-0,099980861224002394	0,000152235138	0,0076128275389102272	-0,00028404483103222688	0,036604108141664838
1	0	0	0	0	0	2	27039,54	-0,100000001	1,40322328	-5,5544923276536992E-005	-0,099980863108254246	0,00014029548	0,0060575708318135488	-0,00022601611222556758	0,038159364848761498
1	0	0	0	0	0	2	27095,54	-0,100000001	1,29749477	-5,5544868098364934E-005	-0,099980763787543334	0,000129724518	0,004502315366701751	-0,00016798743975903408	0,039714620313873286
1	0	0	0	0	0	2	27151,54	-0,100000001	1,24286425	-5,5544757297469504E-005	-0,099980564345929139	0,000124262267	0,0029470616550050374	-0,00010995883271477483	0,041269874025570016
1	0	0	0	0	0	2	27207,54	-0,100000001	1,21641779	-5,5544744093385005E-005	-0,099980540578576768	0,000121618112	0,0013918092033302333	-5,1930272683627162E-005	0,042825126477244819
1	0	0	0	0	0	2	27255,05	-0,100000001	1,20011079	-4,1891884320312077E-005	-0,099980632045195328	0,000119987839	7,2388201718334989E-005	-2,7009011330834096E-006	0,044144547478856717