File: Experimentelles/Rohdaten/Batteriemessungen/AlteZelle/Batterietest Li vs LATP/ECLab-Export/LATP vs Li Batterietest Probe1_02_GCPL_C01_loop4.mpt
EC-Lab ASCII FILE
Nb header lines : 3
mode	ox/red	error	control changes	Ns changes	counter inc.	Ns	time/s	control/V/mA	Ewe/V	dq/mA.h	<I>/mA	P/W	(Q-Qo)/mA.h	x	Capacity/mA.h
1	1	0	1	1	0	1	14442,00	0,100000001	1,21313345	0	0	0	0	0	0
1	1	0	1	0	0	1	14498,00	0,100000001	2,11790752	5,556387953749961E-005	0,10001498437840006	0,000211822495	0,0015544143167415757	-5,7997288089904525E-005	0,0015544143167415757
1	1	0	1	0	0	1	14554,00	0,100000001	2,51859498	5,5563891661663853E-005	0,10001500620189597	0,000251897291	0,0031102027183448602	-0,00011604584513347614	0,0031102027183448602
1	1	0	1	0	0	1	14610,00	0,100000001	2,55607843	5,5563957560393542E-005	0,10001512481961083	0,000255646504	0,0046659923562031174	-0,00017409444830338294	0,0046659923562031174
1	1	0	1	0	0	1	14666,00	0,100000001	2,57662439	5,5563997073719898E-005	0,10001519594359914	0,000257701584	0,0062217820590515443	-0,00023214305389816038	0,0062217820590515443
1	1	0	1	0	0	1	14722,00	0,100000001	2,59340882	5,5563902998136147E-005	0,10001502660754635	0,000259379856	0,0077775726761462272	-0,00029019169360469478	0,0077775726761462272
1	1	0	1	0	0	1	14778,00	0,100000001	2,60904765	5,5563808275593651E-005	0,10001485610696778	0,000260943518	0,0093333608367029466	-0,00034824024165449504	0,0093333608367029466
1	1	0	1	0	0	1	14834,00	0,100000001	2,62449527	5,5563743347922957E-005	0,10001473923715914	0,000262488204	0,010889148234450182	-0,00040628876124284774	0,010889148234450182
1	1	0	1	0	0	1	14890,00	0,100000001	2,64028692	5,5563736421780454E-005	0,10001472677010246	0,000264067581	0,012444933104635144	-0,0004643371865244537	0,012444933104635144
1	1	0	1	0	0	1	14946,00	0,100000001	2,65663218	5,556367172259424E-005	0,10001461031156586	0,000265702023	0,014000716397735424	-0,00052238555296290982	0,014000716397735424
1	1	0	1	0	0	1	15002,00	0,100000001	2,67377925	5,5563626930945446E-005	0,10001452968659706	0,000267416763	0,01555649799342664	-0,00058043385606875149	0,01555649799342664
1	1	0	1	0	0	1	15058,00	0,100000001	2,69212961	5,5563683682845696E-005	0,10001463184001875	0,000269252341	0,017112281493965571	-0,00063848223024702246	0,017112281493965571
1	1	0	1	0	0	1	15114,00	0,100000001	2,7116828	5,556377789709303E-005	0,100014801425666	0,00027120841	0,018668065576314128	-0,00069653062613339302	0,018668065576314128
1	1	0	1	0	0	1	15170,00	0,100000001	2,73270631	5,5563744177834854E-005	0,10001474073100054	0,0002733109	0,020223849548597341	-0,00075457901791307738	0,020223849548597341
1	1	0	1	0	0	1	15226,00	0,100000001	2,75529552	5,5563712896986144E-005	0,10001468442547219	0,000275569997	0,021779632487879056	-0,00081262737115008717	0,021779632487879056
1	1	0	1	0	0	1	15282,00	0,100000001	2,78011894	5,5563576567504141E-005	0,1000144390324016	0,00027805203	0,023335415062400656	-0,00087067571077740646	0,023335415062400656
1	1	0	1	0	0	1	15338,00	0,100000001	2,80801654	5,5563695088442829E-005	0,10001465237009384	0,000280842796	0,024891197335278035	-0,0009287240391499744	0,024891197335278035
1	1	0	1	0	0	1	15394,00	0,100000001	2,84011507	5,5563591988964211E-005	0,10001446679103008	0,000284052599	0,026446977325362083	-0,00098677228234845402	0,026446977325362083
1	1	0	1	0	0	1	15450,00	0,100000001	2,87721658	5,5563834212306477E-005	0,10001490279305142	0,000287764531	0,028002760180592982	-0,0010448206324494146	0,028002760180592982
1	1	0	1	0	0	1	15506,00	0,100000001	2,92098188	5,5563880990776755E-005	0,10001498699429894	0,000292141951	0,029558545874940474	-0,0011028690884816326	0,029558545874940474
1	1	0	1	0	0	1	15562,00	0,100000001	2,97366476	5,5563981470548448E-005	0,10001516785789019	0,000297411578	0,031114334468848211	-0,0011609176527003421	0,031114334468848211
1	1	0	1	0	0	1	15618,00	0,100000001	3,03786182	5,5563955427871808E-005	0,10001512098107168	0,000303832116	0,032670124272960787	-0,0012189662620734211	0,032670124272960787
1	1	0	1	0	0	1	15674,00	0,100000001	3,1187861	5,5563876914067398E-005	0,10001497965622203	0,000311925338	0,034225913282344371	-0,0012770148417940928	0,034225913282344371
1	1	0	1	0	0	1	15730,00	0,100000001	3,22382712	5,5563933947434029E-005	0,1000150823162832	0,000322431326	0,035781702338644256	-0,0013350634232652749	0,035781702338644256
1	1	0	1	0	0	1	15786,00	0,100000001	3,36333466	5,5563792000628186E-005	0,10001482681202958	0,000336383324	0,037337489571717926	-0,0013931119367094354	0,037337489571717926
1	1	0	1	0	0	1	15842,00	0,100000001	3,54884171	5,5563728035324147E-005	0,10001471167448093	0,000354936376	0,038893274964421613	-0,0014511603814869174	0,038893274964421613
1	1	0	1	0	0	1	15898,00	0,100000001	3,79188156	5,5563755420347053E-005	0,10001476096752277	0,000379244128	0,040449060795288986	-0,0015092088426128758	0,040449060795288986
1	1	0	1	0	0	1	15954,00	0,100000001	4,09008694	5,5563711129956774E-005	0,1000146812448193	0,000409068743	0,042004845416114579	-0,0015672572585905485	0,042004845416114579
1	1	0	1	0	0	1	16010,00	0,100000001	4,36329126	5,556360649814208E-005	0,10001449290755056	0,000436392351	0,043560625609843686	-0,0016253055093872992	0,043560625609843686
1	0	0	0	0	0	2	16062,34	-0,100000001	4,02727795	-5,5543540908230675E-005	-0,09997837484527273	0,000402640697	0,044348099803205152	-0,001654687230311929	0,0003332656215313408
1	0	0	0	0	0	2	16118,34	-0,100000001	2,60831618	-5,554363130281369E-005	-0,099978537555524134	0,000260775647	0,042792879230698771	-0,001596659859735417	0,0018884861940377286
1	0	0	0	0	0	2	16174,34	-0,100000001	2,44816732	-5,5543600103507443E-005	-0,099978481396772211	0,000244764058	0,041237658686477683	-0,0015386324902142675	0,0034437067382588166
1	0	0	0	0	0	2	16230,34	-0,100000001	2,41314721	-5,5543505543222029E-005	-0,099978311188256422	0,000241262387	0,039682435865390592	-0,0014806050357401862	0,0049989295593458758
1	0	0	0	0	0	2	16286,34	-0,100000001	2,398597	-5,5543376890321568E-005	-0,099978079613032794	0,000239807123	0,038127218326685715	-0,0014225777783588874	0,0065541470980507648
1	0	0	0	0	0	2	16342,34	-0,100000001	2,38469577	-5,5543301995015808E-005	-0,099977944801480768	0,000238416978	0,036572003922172288	-0,0013645506379184858	0,0081093615025642022
1	0	0	0	0	0	2	16398,34	-0,100000001	2,36941981	-5,5543089446922144E-005	-0,099977562214907546	0,000236888824	0,035016792627945939	-0,0013065236135270766	0,0096645727967905498
1	0	0	0	0	0	2	16454,34	-0,100000001	2,35187173	-5,5543166424251264E-005	-0,099977700774101645	0,000235134721	0,03346158262165344	-0,001248496637190211	0,01121978280308305
1	0	0	0	0	0	2	16510,34	-0,100000001	2,33212757	-5,5543381894628205E-005	-0,099978088620784819	0,000233161656	0,031906370299182406	-0,0011904695744336106	0,012774995125554094
1	0	0	0	0	0	2	16566,34	-0,100000001	2,31051207	-5,5543658581044934E-005	-0,099978586656340979	0,00023100173	0,030351151796595078	-0,0011324422810885616	0,014330213628141424
1	0	0	0	0	0	2	16622,34	-0,100000001	2,28710175	-5,5543761157327232E-005	-0,099978771293651354	0,000228661622	0,028795928372387661	-0,0010744148041112499	0,015885437052348838
1	0	0	0	0	0	2	16678,34	-0,100000001	2,26212549	-5,5544094697054886E-005	-0,099979371665168384	0,000226165881	0,027240699008432099	-0,0010163871055139491	0,0174406664163044
1	0	0	0	0	0	2	16734,34	-0,100000001	2,23525906	-5,5544028595503834E-005	-0,099979252682375066	0,000223479525	0,025685465157919037	-0,00095835923951715546	0,018995900266817462
1	0	0	0	0	0	2	16790,34	-0,100000001	2,20625401	-5,5544230625861216E-005	-0,099979616337022746	0,000220580434	0,024130228795575187	-0,00090033127980057792	0,020551136629161315
1	0	0	0	0	0	2	16846,34	-0,100000001	2,17417455	-5,5544292166001267E-005	-0,099979727109276173	0,000217373381	0,022574990037355574	-0,00084230323069065446	0,022106375387380928
1	0	0	0	0	0	2	16902,34	-0,100000001	2,13894439	-5,5544265288031763E-005	-0,099979678728930496	0,000213850974	0,021019751206856227	-0,00078427517888387699	0,023661614217880278
1	0	0	0	0	0	2	16958,34	-0,100000001	2,09895968	-5,554432078699271E-005	-0,099979778627061389	0,000209853519	0,019464511741750771	-0,00072624710339909248	0,025216853682985731
1	0	0	0	0	0	2	17014,34	-0,100000001	2,05349469	-5,5544422678235507E-005	-0,099979962031300659	0,000205308315	0,017909270087373347	-0,00066821894622962701	0,026772095337363158
1	0	0	0	0	0	2	17070,34	-0,100000001	2,00104094	-5,5544427526907782E-005	-0,099979970758910848	0,000200064009	0,016354025577929702	-0,00061019068253380237	0,028327339846806803
1	0	0	0	0	0	2	17126,34	-0,100000001	1,93961263	-5,5544414677967622E-005	-0,099979947630818291	0,000193922373	0,014798782523685866	-0,00055216247313343904	0,02988258290105063
1	0	0	0	0	0	2	17182,34	-0,100000001	1,86705196	-5,5544507467498381E-005	-0,09998011465197568	0,000186668069	0,013243539928780254	-0,00049413428087160256	0,031437825495956237
1	0	0	0	0	0	2	17238,34	-0,100000001	1,78260088	-5,554454384619991E-005	-0,099980180133639206	0,000178224756	0,011688295458519216	-0,0004361060186377337	0,03299306996621728
1	0	0	0	0	0	2	17294,34	-0,100000001	1,68458676	-5,5544544754342899E-005	-0,099980181768296627	0,000168425293	0,010133049498182627	-0,00037807770080714246	0,034548315926553888
1	0	0	0	0	0	2	17350,34	-0,100000001	1,57545936	-5,5544482746885882E-005	-0,099980070154872653	0,000157514543	0,008577804566817161	-0,00032004942136884736	0,036103560857919354
1	0	0	0	0	0	2	17406,34	-0,100000001	1,46176827	-5,5544471113632122E-005	-0,099980049215015616	0,000146147664	0,0070225578513745715	-0,00026202107536423603	0,037658807573361939
1	0	0	0	0	0	2	17462,34	-0,100000001	1,35021579	-5,5544630920721427E-005	-0,099980336867779853	0,000134995033	0,0054673073144406163	-0,00020399258677464384	0,039214058110295885
1	0	0	0	0	0	2	17518,34	-0,100000001	1,26950169	-5,5544616550621056E-005	-0,099980311001598874	0,000126925181	0,0039120577930245222	-0,00014596413607538842	0,040769307631711968
1	0	0	0	0	0	2	17574,34	-0,100000001	1,23194194	-5,5544614096896518E-005	-0,099980306584894643	0,000123169928	0,0023568083681542925	-8,7935688978388992E-005	0,042324557056582189
1	0	0	0	0	0	2	17630,34	-0,100000001	1,20958185	-5,5544625906894605E-005	-0,099980327842891469	0,00012093439	0,00080155787910439117	-2,9907202175415226E-005	0,043879807545632077
1	0	0	0	0	0	2	17659,76	-0,100000001	1,2000916	-3,9386749932335482E-005	-0,099980469236875238	0,000119985722	-1,5453544171725322E-005	5,7659251055818982E-007	0,044696818968908192