File: Experimentelles/Rohdaten/Batteriemessungen/AlteZelle/Batterietest Li vs LATP/ECLab-Export/LATP vs Li Batterietest Probe2_01_OCV_C02.mpt
EC-Lab ASCII FILE
Nb header lines : 48

Open Circuit Voltage

Run on channel : 2 (SN 6986)
Grouped channel(s) : 2
User :
CE vs. WE compliance from -10 V to 10 V
Electrode connection : standard
Ewe ctrl range : min = 0,00 V, max = 5,00 V
Acquisition started on : 10.28.2014 11:51:47
Saved on :
	File : LATP vs Li Batterietest Probe2_01_OCV_C02.mpr
	Directory : C:\Hupfer\Batterietest Li vs LATP\
	Host : 192.168.0.2
Device : VMP3 (SN 0324)
Address : 192.168.0.1
EC-Lab for windows v10.33 (software)
Internet server v10.33 (firmware)
Command interpretor v10.32 (firmware)
Electrode material : Lithium - LATP folie
Initial state : unbekannt
Electrolyte : LP30
Comments : Batterietest
Comments : Probe 2
Mass of active material : 0,001 mg
 at x = 0,000
Molecular weight of active material (at x = 0) : 0,001 g/mol
Atomic weight of intercalated ion : 0,001 g/mol
Acquisition started at : xo = 0,000
Number of e- transfered per intercalated ion : 1
for DX = 1, DQ = 26,801 mA.h
Battery capacity : 0,000 A.h
Reference electrode : Li+/Li (-3,020 V)
Electrode surface area : 0,001 cm²
Characteristic mass : 0,001 g
tR (h:m:s)          0:30:0,0000
dER/dt (mV/h)       0,0
dER (mV)            0,00
dtR (s)             10,0000
E range min (V)     0,000
E range max (V)     5,000

Number of loops : 1
Loop 0 from point number 0 to 180

mode	error	time/s	Ewe/V
3	0	0,0000	2,47666383
3	0	10,0000	2,47674012
3	0	20,0000	2,47677827
3	0	30,0000	2,47670197
3	0	40,0000	2,47672105
3	0	50,0000	2,4766829
3	0	60,0000	2,47677827
3	0	70,0000	2,4766829
3	0	80,0000	2,47656846
3	0	90,0000	2,47666383
3	0	100,0000	2,47654939
3	0	110,0000	2,4767592
3	0	120,0000	2,47662568
3	0	130,0000	2,47666383
3	0	140,0000	2,47672105
3	0	150,0000	2,47666383
3	0	160,0000	2,47656846
3	0	170,0000	2,47662568
3	0	180,0000	2,47666383
3	0	190,0000	2,47662568
3	0	200,0000	2,47666383
3	0	210,0000	2,47672105
3	0	220,0000	2,47670197
3	0	230,0000	2,47672105
3	0	240,0000	2,47672105
3	0	250,0000	2,47662568
3	0	260,0000	2,47670197
3	0	270,0000	2,47672105
3	0	280,0000	2,47654939
3	0	290,0000	2,47666383
3	0	300,0000	2,47658753
3	0	310,0000	2,47664475
3	0	320,0000	2,47658753
3	0	330,0000	2,47660661
3	0	340,0000	2,47664475
3	0	350,0000	2,47666383
3	0	360,0000	2,4766829
3	0	370,0000	2,47670197
3	0	380,0000	2,47656846
3	0	390,0000	2,47670197
3	0	400,0000	2,47654939
3	0	410,0000	2,47672105
3	0	420,0000	2,47674012
3	0	430,0000	2,47662568
3	0	440,0000	2,47664475
3	0	450,0000	2,47672105
3	0	460,0000	2,4766829
3	0	470,0000	2,47660661
3	0	480,0000	2,47656846
3	0	490,0000	2,4767592
3	0	500,0000	2,47664475
3	0	510,0000	2,47664475
3	0	520,0000	2,47662568
3	0	530,0000	2,47654939
3	0	540,0000	2,47658753
3	0	550,0000	2,47664475
3	0	560,0000	2,47672105
3	0	570,0000	2,47658753
3	0	580,0000	2,4767592
3	0	590,0000	2,4766829
3	0	600,0000	2,47670197
3	0	610,0000	2,47674012
3	0	620,0000	2,47666383
3	0	630,0000	2,47670197
3	0	640,0000	2,47664475
3	0	650,0000	2,47670197
3	0	660,0000	2,47677827
3	0	670,0000	2,4766829
3	0	680,0000	2,4766829
3	0	690,0000	2,47649217
3	0	700,0000	2,47660661
3	0	710,0000	2,4766829
3	0	720,0000	2,47670197
3	0	730,0000	2,47660661
3	0	740,0000	2,47677827
3	0	750,0000	2,47670197
3	0	760,0000	2,47677827
3	0	770,0000	2,47662568
3	0	780,0000	2,47666383
3	0	790,0000	2,47672105
3	0	800,0000	2,47666383
3	0	810,0000	2,47670197
3	0	820,0000	2,47670197
3	0	830,0000	2,47666383
3	0	840,0000	2,47666383
3	0	850,0000	2,4766829
3	0	860,0000	2,4766829
3	0	870,0000	2,4767592
3	0	880,0000	2,47660661
3	0	890,0000	2,47660661
3	0	900,0000	2,47654939
3	0	910,0000	2,47660661
3	0	920,0000	2,47672105
3	0	930,0000	2,47660661
3	0	940,0000	2,4766829
3	0	950,0000	2,47666383
3	0	960,0000	2,47666383
3	0	970,0000	2,47674012
3	0	980,0000	2,47670197
3	0	990,0000	2,47672105
3	0	1000,0000	2,47672105
3	0	1010,0000	2,47670197
3	0	1020,0000	2,47670197
3	0	1030,0000	2,4766829
3	0	1040,0000	2,47658753
3	0	1050,0000	2,47658753
3	0	1060,0000	2,47672105
3	0	1070,0000	2,47664475
3	0	1080,0000	2,47664475
3	0	1090,0000	2,47664475
3	0	1100,0000	2,4766829
3	0	1110,0000	2,4766829
3	0	1120,0000	2,47670197
3	0	1130,0000	2,47672105
3	0	1140,0000	2,47666383
3	0	1150,0000	2,47677827
3	0	1160,0000	2,47666383
3	0	1170,0000	2,47662568
3	0	1180,0000	2,47662568
3	0	1190,0000	2,47660661
3	0	1200,0000	2,4767592
3	0	1210,0000	2,47662568
3	0	1220,0000	2,47662568
3	0	1230,0000	2,4767592
3	0	1240,0000	2,47670197
3	0	1250,0000	2,47670197
3	0	1260,0000	2,47662568
3	0	1270,0000	2,47656846
3	0	1280,0000	2,4766829
3	0	1290,0000	2,47672105
3	0	1300,0000	2,4766829
3	0	1310,0000	2,47660661
3	0	1320,0000	2,47670197
3	0	1330,0000	2,47674012
3	0	1340,0000	2,47666383
3	0	1350,0000	2,47670197
3	0	1360,0000	2,4766829
3	0	1370,0000	2,47672105
3	0	1380,0000	2,47670197
3	0	1390,0000	2,4766829
3	0	1400,0000	2,47662568
3	0	1410,0000	2,47664475
3	0	1420,0000	2,4767592
3	0	1430,0000	2,47674012
3	0	1440,0000	2,47660661
3	0	1450,0000	2,47664475
3	0	1460,0000	2,47666383
3	0	1470,0000	2,47660661
3	0	1480,0000	2,47664475
3	0	1490,0000	2,47660661
3	0	1500,0000	2,47672105
3	0	1510,0000	2,47656846
3	0	1520,0000	2,47660661
3	0	1530,0000	2,47672105
3	0	1540,0000	2,47664475
3	0	1550,0000	2,4767592
3	0	1560,0000	2,4766829
3	0	1570,0000	2,47658753
3	0	1580,0000	2,47666383
3	0	1590,0000	2,4767592
3	0	1600,0000	2,47672105
3	0	1610,0000	2,47653031
3	0	1620,0000	2,47654939
3	0	1630,0000	2,4766829
3	0	1640,0000	2,47664475
3	0	1650,0000	2,4766829
3	0	1660,0000	2,47664475
3	0	1670,0000	2,47662568
3	0	1680,0000	2,47658753
3	0	1690,0000	2,47670197
3	0	1700,0000	2,47664475
3	0	1710,0000	2,47662568
3	0	1720,0000	2,47666383
3	0	1730,0000	2,47654939
3	0	1740,0000	2,47664475
3	0	1750,0000	2,47666383
3	0	1760,0000	2,47666383
3	0	1770,0000	2,47670197
3	0	1780,0000	2,47658753
3	0	1790,0000	2,47670197
3	0	1800,0000	2,47658753