File: Experimentelles/Rohdaten/Batteriemessungen/AlteZelle/Batterietest Li vs LATP/ECLab-Export/LATP vs Li Batterietest Probe1_02_GCPL_C01.mpt
EC-Lab ASCII FILE
Nb header lines : 82

Galvanostatic Cycling with Potential Limitation

Run on channel : 1 (SN 6985)
Grouped channel(s) : 1
User :
CE vs. WE compliance from -10 V to 10 V
Electrode connection : standard
Ewe ctrl range : min = 0,00 V, max = 5,00 V
Acquisition started on : 10.28.2014 11:50:52
Saved on :
	File : LATP vs Li Batterietest Probe1_02_GCPL_C01.mpr
	Directory : C:\Hupfer\Batterietest Li vs LATP\
	Host : 192.168.0.2
Device : VMP3 (SN 0324)
Address : 192.168.0.1
EC-Lab for windows v10.33 (software)
Internet server v10.33 (firmware)
Command interpretor v10.32 (firmware)
Electrode material : Lithium - LATP folie
Initial state : unbekannt
Electrolyte : LP30
Comments : Batterietest
Mass of active material : 0,001 mg
 at x = 0,000
Molecular weight of active material (at x = 0) : 0,001 g/mol
Atomic weight of intercalated ion : 0,001 g/mol
Acquisition started at : xo = 0,000
Number of e- transfered per intercalated ion : 1
for DX = 1, DQ = 26,801 mA.h
Battery capacity : 0,000 A.h
Reference electrode : Li+/Li (-3,020 V)
Electrode surface area : 0,001 cm²
Characteristic mass : 0,001 g
Ns                  0                   1                   2
Set I/C             I                   I                   I
Is                  0,000               100,000             -100,000
unit Is             mA                  µA                  µA
vs.                 <None>              <None>              <None>
N                   1                   1                   1
I sign              > 0                 > 0                 > 0
t1 (h:m:s)          0:00:0,0000         60:00:0,0000        60:00:0,0000
I Range             100 µA              100 µA              100 µA
Bandwidth           5                   5                   5
dE1 (mV)            0,00                0,00                0,00
dt1 (s)             0,0000              2,0000              2,0000
EM (V)              0,000               4,500               1,200
tM (h:m:s)          0:00:0,0000         0:00:0,0000         0:00:0,0000
Im                  0,000               0,000               0,000
unit Im             mA                  mA                  mA
E range min (V)     0,000               0,000               0,000
E range max (V)     5,000               5,000               5,000
dq                  0,000               1,000               1,000
unit dq             mA.h                mA.h                mA.h
dtq (s)             0,0000              120,0000            120,0000
dQM                 0,000               0,000               0,000
unit dQM            mA.h                mA.h                mA.h
dxM                 0,000               0,000               0,000
tR (h:m:s)          0:00:0,0000         0:00:0,0000         0:00:0,0000
dER/dt (mV/h)       0,0                 0,1                 0,1
dER (mV)            0,00                5,00                5,00
dtR (s)             1,0000              120,0000            120,0000
EL (V)              pass                3,500               3,500
goto Ns'            0                   0                   0
nc cycles           0                   0                   0

Number of loops : 11
Loop 0 from point number 0 to 1297
Loop 1 from point number 1298 to 3017
Loop 2 from point number 3018 to 4693
Loop 3 from point number 4694 to 6333
Loop 4 from point number 6334 to 7945
Loop 5 from point number 7946 to 9554
Loop 6 from point number 9555 to 11158
Loop 7 from point number 11159 to 12751
Loop 8 from point number 12752 to 14335
Loop 9 from point number 14336 to 15911
Loop 10 from point number 15912 to 17481

mode	ox/red	error	control changes	Ns changes	counter inc.	Ns	time/s	control/V/mA	Ewe/V	dq/mA.h	<I>/mA	P/W	(Q-Qo)/mA.h	Capacity/mA.h	x
1	1	0	1	1	0	1	1800,0010	0,100000001	2,48391867	0	0	0	0	0	0
1	1	0	1	0	0	1	2412,0009	0,100000001	3,91527295	5,5562678776267501E-005	0,10001282432381795	0,000391577516	0,017000848486794627	0,017000848486794627	-0,00063432451492620288
1	0	0	0	0	0	2	3021,6171	-0,100000001	2,35087872	-5,5545427736308838E-005	-0,09998177245110793	0,000235045023	0,010826326105413578	0,011553428451598098	-0,00040394478314324115
1	0	0	0	0	0	2	3633,6171	-0,100000001	2,04509282	-5,554536107472247E-005	-0,099981652460249434	0,000204471755	-0,0061705315842390234	0,02855028614125071	0,00023023082977590893
1	0	0	0	0	0	2	4245,6171	-0,100000001	1,25237346	-5,5545406472351814E-005	-0,099981732860731443	0,000125214472	-0,023167403056723168	0,045547157613734822	0,00086440695695103514
1	1	0	1	0	0	1	4854,0555	0,100000001	2,63919854	5,5563030183729197E-005	0,10001345554159482	0,000263955357	-0,014288245025890768	0,01288920738046289	0,00053311363266573773
1	1	0	1	0	0	1	5466,0555	0,100000001	2,89199591	5,5562758702370854E-005	0,10001296687514389	0,000289237098	0,0027139933201863184	0,029891445726539994	-0,00010126273977897947
1	1	0	1	0	0	1	6078,0555	0,100000001	4,41490459	5,5562775336619878E-005	0,10001299681679248	0,000441547832	0,019716189980577472	0,04689364238693111	-0,00073563755687470746
1	0	0	0	0	0	2	6686,1443	-0,100000001	2,29907417	-5,5545645484079917E-005	-0,099982163081847232	0,000229866404	0,0050549382041214714	0,015774956679851235	-0,00018860654083247101
1	0	0	0	0	0	2	7298,1443	-0,100000001	1,86266005	-5,5545463981313837E-005	-0,099981836376864346	0,000186232166	-0,011941985550804066	0,0327718804347768	0,00044557153707083802
1	1	0	1	0	0	1	7907,0345	0,100000001	2,38029051	5,5562816907134317E-005	0,10001307164371938	0,000238060165	-0,02418592552656239	0,0023322684029556659	0,0009024093997187616
1	1	0	1	0	0	1	8519,0344	0,100000001	2,71141529	5,5562641605734822E-005	0,10001275610119648	0,000271176104	-0,007183706728269792	0,019334487201248259	0,00026803375662816602
1	1	0	1	0	0	1	9131,0344	0,100000001	3,17950797	5,5562809051324928E-005	0,1000130575032623	0,000317992322	0,0098185162544704371	0,03633671018398848	-0,00036634204258979674
1	0	0	0	0	0	2	9740,2184	-0,100000001	2,40018177	-5,5545514944526886E-005	-0,099981928110648934	0,000239974805	0,0134094931787694	0,0066654536425541683	-0,00050032621975521517
1	0	0	0	0	0	2	10352,2184	-0,100000001	2,15677905	-5,5545268971059059E-005	-0,099981485358401498	0,000215637978	-0,0035874097540491674	0,023662356575372726	0,00013385108124728718
1	0	0	0	0	0	2	10964,2184	-0,100000001	1,33337414	-5,554504425285591E-005	-0,099981080865630925	0,000133312191	-0,020584224992769171	0,040659171814092723	0,00076802511026506611
1	1	0	1	0	0	1	11573,0140	0,100000001	2,62294865	5,5562989476654266E-005	0,10001338226885904	0,000262329966	-0,015048145466146678	0,011222389059208563	0,00056146653978869382
1	1	0	1	0	0	1	12185,0140	0,100000001	2,8661797	5,5563041098001933E-005	0,10001347518728597	0,000286656606	0,0019541777631086832	0,028224712288463949	-7,2912999761531366E-005
1	1	0	1	0	0	1	12797,0140	0,100000001	4,44942808	5,556313569222887E-005	0,10001364545689654	0,000445003534	0,018956549195396086	0,045227083720751386	-0,00070729433783169178
1	0	0	0	0	0	2	13405,8836	-0,100000001	2,28507757	-5,554412915599015E-005	-0,099979433691252621	0,000228460762	0,0030951374218390176	0,016385623603771542	-0,00011548373866533654
1	0	0	0	0	0	2	14017,8836	-0,100000001	1,77813268	-5,5543770766506598E-005	-0,099978788590174413	0,000177775553	-0,013901234220976149	0,033381995246586707	0,0005186737391928119
1	1	0	1	0	0	1	14626,0028	0,100000001	2,56268525	5,5563958966483674E-005	0,1000151273505731	0,000256307278	-0,020567943279133795	0,0051105040917835635	0,00076741761763833344
1	1	0	1	0	0	1	15238,0028	0,100000001	2,760432	5,556367290765047E-005	0,1000146124446671	0,000276083534	-0,0035654329120743162	0,022113014458843014	0,00013303109572502717
1	1	0	1	0	0	1	15850,0028	0,100000001	3,57987094	5,5563791609058778E-005	0,10001482610720464	0,000358040183	0,013437082673149942	0,03911553004406727	-0,00050135562088502285
1	0	0	0	0	0	2	16458,3441	-0,100000001	2,3506496	-5,554317959604992E-005	-0,099977724483339507	0,000235012601	0,0076720488425937677	0,011330869211225462	-0,00028625445749654938
1	0	0	0	0	0	2	17070,3441	-0,100000001	2,00104094	-5,5544427526907782E-005	-0,099979970758910848	0,000200064009	-0,0093244217929875789	0,028327339846806803	0,0003479067139148025
1	1	0	1	0	0	1	17679,8129	0,100000001	1,64202416	5,5563147362735533E-005	0,10001366646380877	0,000164224854	-0,025139641637714752	0,00055425927737428877	0,00093799383011080538
1	1	0	1	0	0	1	18291,8129	0,100000001	2,69369531	5,5563047830843264E-005	0,10001348730640053	0,000269405864	-0,0081373483977830694	0,017556552517305952	0,00030361540950256774
1	1	0	1	0	0	1	18903,8129	0,100000001	3,13534141	5,5562809604737491E-005	0,10001305849940494	0,000313575089	0,0088649218449506112	0,034558822760039616	-0,00033076215304929242
1	0	0	0	0	0	2	19513,4033	-0,100000001	2,39752769	-5,554488370898697E-005	-0,099980791886663334	0,000239706715	0,011800618792107165	0,0069986785822163059	-0,0004402969532342281
1	0	0	0	0	0	2	20125,4033	-0,100000001	2,13923073	-5,5545126400474042E-005	-0,09998122873134537	0,000213882915	-0,0051961939541514925	0,023995491328474934	0,00019387698278646688
1	0	0	0	0	0	2	20737,4033	-0,100000001	1,2631048	-5,5545073641671072E-005	-0,099981133765498854	0,000126286643	-0,022192995522616589	0,040992292896940013	0,00082805050174865536
1	1	0	1	0	0	1	21345,7505	0,100000001	2,64122248	5,556282561769088E-005	0,10001308732272139	0,000264156814	-0,012755726115111778	0,013167026628157606	0,00047593329161098355
1	1	0	1	0	0	1	21957,7505	0,100000001	2,93020487	5,556298446613881E-005	0,10001337324993112	0,000293059682	0,0042465071630650778	0,030169259906334458	-0,00015844289174356205
1	0	0	0	0	0	2	22566,6311	-0,100000001	2,5034852	-5,5545213501486515E-005	-0,099981385513169702	0,000250301906	0,015940003070535664	0,002610630036844975	-0,00059474294612374925
1	0	0	0	0	0	2	23178,6311	-0,100000001	2,23254752	-5,5545159815086259E-005	-0,099981288877648064	0,000223212977	-0,0010568108612092869	0,019607443968589942	3,9431034129033331E-005
1	0	0	0	0	0	2	23790,6311	-0,100000001	1,53805244	-5,554522715136409E-005	-0,099981410082949645	0,000153776651	-0,01805359385150681	0,03660422695888745	0,00067360385991481101
1	1	0	1	0	0	1	24399,8939	0,100000001	2,60079861	5,5563028394348096E-005	0,10001345232070878	0,000260114844	-0,016863739204148803	0,0090553843122714086	0,00062920878324529613
1	1	0	1	0	0	1	25011,8938	0,100000001	2,82439995	5,556308843857712E-005	0,10001356040032234	0,000282478286	0,00013852217177018794	0,02605764568819039	-5,1684484737864646E-006
1	1	0	1	0	0	1	25623,8938	0,100000001	4,339499	5,5562914881027411E-005	0,10001324799672909	0,000434007379	0,017140776841120237	0,043059900357540486	-0,00063954542996176474
1	0	0	0	0	0	2	26233,5422	-0,100000001	2,29531264	-5,554485852561063E-005	-0,09998074655658537	0,000229487065	0,0025230494145196896	0,015774762749635098	-9,4138365931745958E-005
1	0	0	0	0	0	2	26845,5422	-0,100000001	1,78999066	-5,5544803123507232E-005	-0,099980646832798054	0,00017896443	-0,014473703885200058	0,032771516049354861	0,00054003335205865555
1	1	0	1	0	0	1	27455,1012	0,100000001	2,56469011	5,5563107225216096E-005	0,1000135942162729	0,000256503874	-0,020291802799346006	0,0055549325153559014	0,00075711444506262733
1	1	0	1	0	0	1	28067,1012	0,100000001	2,76176858	5,5563040906770362E-005	0,10001347484306914	0,000276214065	-0,0032895116899173606	0,022557223624784538	0,00012273610394632242
1	1	0	1	0	0	1	28679,1012	0,100000001	3,70047426	5,5563049621052211E-005	0,10001349052877667	0,000370097347	0,013712764091645398	0,039559499406347296	-0,00051164166526669773
1	0	0	0	0	0	2	29288,5464	-0,100000001	2,34072018	-5,5544851418584582E-005	-0,09998073376393833	0,000234026928	0,0055336842918637594	0,012553133309522018	-0,00020646920104709658
1	0	0	0	0	0	2	29900,5464	-0,100000001	1,94875908	-5,5544958326551648E-005	-0,099980926198281395	0,000194838736	-0,011463065400342	0,029549883001727795	0,00042770238234210765
1	1	0	1	0	0	1	30509,2386	0,100000001	2,48168468	5,556331633362505E-005	0,10001397061141358	0,000248203141	-0,023256927578953165	0,0025545362244315632	0,00086774723724243648
1	1	0	1	0	0	1	31121,2386	0,100000001	2,71834683	5,5563022637946739E-005	0,10001344195918621	0,00027187122	-0,0062546119121318746	0,019556851891252845	0,00023336797985679437
1	1	0	1	0	0	1	31733,2386	0,100000001	3,32184148	5,5563192180461357E-005	0,10001374713571621	0,0003322298	0,010747677238868603	0,036559141042253293	-0,00040101028818792243
1	0	0	0	0	0	2	32342,7490	-0,100000001	2,37262774	-5,554486934799287E-005	-0,099980766036873638	0,000237217144	0,0081258211776058138	0,0097758735326549222	-0,00030318531341924198
1	0	0	0	0	0	2	32954,7489	-0,100000001	2,0500958	-5,554470347240567E-005	-0,09998046606410208	0,000204969532	-0,0088708748873266624	0,026772569597587424	0,0003309842690642935
1	1	0	1	1	0	1	33563,5180	0,100000001	1,21208322	0	0	0	-0,025776417319927504	0	0,00096175278696817357
1	1	0	1	0	0	1	34175,5180	0,100000001	2,68619108	5,5563242235945331E-005	0,1000138358384113	0,000268656266	-0,0087754701229143078	0,017000947197013184	0,00032742458903099853
1	1	0	1	0	0	1	34787,5180	0,100000001	3,12724519	5,556307750029696E-005	0,1000135393142448	0,000312766846	0,0082268240785922022	0,034003241398519706	-0,00030695386745488877
1	0	0	0	0	0	2	35395,7454	-0,100000001	2,39462519	-5,554482073212663E-005	-0,099980677131599411	0,000239416244	0,010346936401362686	0,0073874745711137843	-0,00038605810873879027
1	0	0	0	0	0	2	36007,7454	-0,100000001	2,11870384	-5,554454787323872E-005	-0,099980185985602099	0,000211828403	-0,0066497682867235789	0,024384179259200051	0,00024811179548620704
1	0	0	0	0	0	2	36619,7454	-0,100000001	1,22915411	-5,554464084862007E-005	-0,099980353341288205	0,000122891259	-0,023646398292836122	0,041380809265312621	0,00088227891322635379
1	0	0	0	0	0	2	36696,7408	-0,100000001	1,19995797	-2,7644638264758717E-005	-0,099980608375636224	0,00011997253	-0,025784743033762509	0,043519154006239021	0,00096206343054539891