File: Experimentelles/Rohdaten/Batteriemessungen/AlteZelle/Batterietest Li vs LATP/ECLab-Export/LATP vs Li Batterietest Probe1_02_GCPL_C01_loop1.mpt
EC-Lab ASCII FILE
Nb header lines : 3
mode	ox/red	error	control changes	Ns changes	counter inc.	Ns	time/s	control/V/mA	Ewe/V	dq/mA.h	<I>/mA	P/W	(Q-Qo)/mA.h	x	Capacity/mA.h
1	1	0	1	1	0	1	4390,06	0,100000001	1,21301889	0	0	0	0	0	0
1	1	0	1	0	0	1	4450,06	0,100000001	2,03786159	5,5562807066159117E-005	0,10001305392996381	0,000203812757	0,001665509746999416	-6,2142407962219149E-005	0,001665509746999416
1	1	0	1	0	0	1	4510,06	0,100000001	2,51221728	5,556276563016905E-005	0,10001297934518077	0,000251254329	0,0033323923523397478	-0,00012433603911496554	0,0033323923523397478
1	1	0	1	0	0	1	4570,06	0,100000001	2,55447435	5,5562868682046733E-005	0,10001316483856285	0,000255481078	0,0049992791984412794	-0,00018652982849621402	0,0049992791984412794
1	1	0	1	0	0	1	4630,06	0,100000001	2,57631898	5,5562858008676109E-005	0,10001314562649549	0,000257665757	0,006666164124543095	-0,00024872354623969168	0,006666164124543095
1	1	0	1	0	0	1	4690,06	0,100000001	2,59422994	5,5562801807290982E-005	0,10001304446400104	0,000259456836	0,0083330487396825101	-0,00031091725238074406	0,0083330487396825101
1	1	0	1	0	0	1	4750,06	0,100000001	2,61067057	5,5562864378094675E-005	0,10001315709144906	0,000261101406	0,009999935427298601	-0,00037311103584868768	0,009999935427298601
1	1	0	1	0	0	1	4810,06	0,100000001	2,62699676	5,5562958359718317E-005	0,10001332625837366	0,000262734684	0,011666822328159834	-0,00043530482727309427	0,011666822328159834
1	1	0	1	0	0	1	4870,06	0,100000001	2,64368582	5,5562900982383226E-005	0,10001322297916925	0,000264403527	0,013333711078910403	-0,00049749868771935917	0,013333711078910403
1	1	0	1	0	0	1	4930,06	0,100000001	2,66075659	5,5562957801338694E-005	0,10001332525329034	0,000266111107	0,01500060007322128	-0,00055969255725318669	0,01500060007322128
1	1	0	1	0	0	1	4990,06	0,100000001	2,67893505	5,55629902192288E-005	0,10001338360549322	0,000267929368	0,016667489788092294	-0,00062188645367208166	0,016667489788092294
1	1	0	1	0	0	1	5050,06	0,100000001	2,69795346	5,5562980939116742E-005	0,10001336690129133	0,00026983142	0,018334379776857827	-0,00068408036031034931	0,018334379776857827
1	1	0	1	0	0	1	5110,06	0,100000001	2,71842313	5,5562982835289504E-005	0,10001337031440234	0,000271878671	0,02000126776808753	-0,00074627419241786957	0,02000126776808753
1	1	0	1	0	0	1	5170,06	0,100000001	2,74043965	5,5562781291289466E-005	0,10001300753519786	0,000274079619	0,021668154959099206	-0,00080846799466817933	0,021668154959099206
1	1	0	1	0	0	1	5230,06	0,100000001	2,76430821	5,556269712953104E-005	0,10001285604403086	0,000276466366	0,023335040661271715	-0,00087066174136789811	0,023335040661271715
1	1	0	1	0	0	1	5290,06	0,100000001	2,79079294	5,5562820624146202E-005	0,10001307833434085	0,000279115804	0,025001925739353782	-0,00093285546478196314	0,025001925739353782
1	1	0	1	0	0	1	5350,06	0,100000001	2,82065725	5,5562799612681069E-005	0,10001304051370315	0,000282102497	0,026668808464310707	-0,00099504910039776538	0,026668808464310707
1	1	0	1	0	0	1	5410,06	0,100000001	2,8550663	5,5562642848326099E-005	0,1000127583378608	0,000285543065	0,028335689107903645	-0,0010572426583550789	0,028335689107903645
1	1	0	1	0	0	1	5470,06	0,100000001	2,89503193	5,5562819468478362E-005	0,1000130762541387	0,000289541058	0,030002571366423174	-0,0011194362765674749	0,030002571366423174
1	1	0	1	0	0	1	5530,06	0,100000001	2,94213915	5,5562713123030131E-005	0,10001288483232957	0,000294251833	0,031669452333844013	-0,0011816298466072427	0,031669452333844013
1	1	0	1	0	0	1	5590,06	0,100000001	2,99902296	5,5562620304110976E-005	0,10001271775827307	0,000299940439	0,033336332837216186	-0,0012438233993327312	0,033336332837216186
1	1	0	1	0	0	1	5650,06	0,100000001	3,06961679	5,556277179262704E-005	0,1000129904376053	0,000307001552	0,035003214290394592	-0,001306016987496767	0,035003214290394592
1	1	0	1	0	0	1	5710,06	0,100000001	3,15940094	5,5562753191424736E-005	0,10001295695544074	0,000315981044	0,036670096902481837	-0,0013682106189012496	0,036670096902481837
1	1	0	1	0	0	1	5770,06	0,100000001	3,27763677	5,5562625507099757E-005	0,10001272712365301	0,000327805377	0,038336978260041978	-0,0014304042034976392	0,038336978260041978
1	1	0	1	0	0	1	5830,06	0,100000001	3,43646812	5,5562711965292691E-005	0,10001288274840216	0,000343691092	0,040003859726853267	-0,0014925977921703366	0,040003859726853267
1	1	0	1	0	0	1	5890,06	0,100000001	3,64685583	5,5562756842623155E-005	0,10001296352759798	0,00036473287	0,041670742986888525	-0,001554791447750631	0,041670742986888525
1	1	0	1	0	0	1	5950,06	0,100000001	3,91204596	5,5562691561463802E-005	0,10001284602150971	0,000391254842	0,043337624604287264	-0,0016169850420419482	0,043337624604287264
1	1	0	1	0	0	1	6010,06	0,100000001	4,19044971	5,5562742245280077E-005	0,10001293725238013	0,000419099175	0,04500450794395888	-0,0016791787005935821	0,04500450794395888
1	1	0	1	0	0	1	6070,06	0,100000001	4,39403391	5,5562784342716134E-005	0,10001301302776594	0,000439460564	0,046671391430826246	-0,0017413723646372874	0,046671391430826246
1	0	0	0	0	0	2	6126,14	-0,100000001	4,16401672	-5,5545431353151795E-005	-0,099981777646171955	0,000416325784	0,047785160741830458	-0,0017829285951096195	0,00022218654849587216
1	0	0	0	0	0	2	6186,14	-0,100000001	2,65171909	-5,5545770503580576E-005	-0,099982388116951142	0,000265125214	0,046118792184619021	-0,0017207541437837072	0,0018885551057072979
1	0	0	0	0	0	2	6246,14	-0,100000001	2,4557097	-5,5545569779972237E-005	-0,099982026814451776	0,00024552684	0,044452420414593069	-0,0016585795725833658	0,0035549268757332518
1	0	0	0	0	0	2	6306,14	-0,100000001	2,41322351	-5,5545543909486797E-005	-0,099981980247577395	0,00024127886	0,042786053352603059	-0,0015964051770461754	0,0052212939377232557
1	0	0	0	0	0	2	6366,14	-0,100000001	2,39798594	-5,5545568318830598E-005	-0,099982024184396787	0,000239755493	0,04111968759774704	-0,0015342308302799114	0,0068876596925792563
1	0	0	0	0	0	2	6426,14	-0,100000001	2,38355017	-5,5545769597507187E-005	-0,099982386486019034	0,000238313034	0,03945331998547289	-0,0014720564142108797	0,0085540273048534157
1	0	0	0	0	0	2	6486,14	-0,100000001	2,36772037	-5,554558298115929E-005	-0,099982050576588749	0,000236729538	0,037786949917947661	-0,0014098819065331294	0,010220397372378656
1	0	0	0	0	0	2	6546,14	-0,100000001	2,34971404	-5,5545619845390317E-005	-0,099982116932205402	0,000234929379	0,036120583992946061	-0,0013477075534185053	0,011886763297380254
1	0	0	0	0	0	2	6606,14	-0,100000001	2,32932067	-5,554567164099879E-005	-0,099982210164301786	0,000232890627	0,034454215064414278	-0,0012855330882381317	0,013553132225912061
1	0	0	0	0	0	2	6666,14	-0,100000001	2,30697966	-5,5545590180489747E-005	-0,099982063535383731	0,000230656588	0,032787846808424864	-0,0012233586481512179	0,015219500481901485
1	0	0	0	0	0	2	6726,14	-0,100000001	2,28269076	-5,5545475600908205E-005	-0,099981857292134451	0,000228227669	0,031121480407318765	-0,0011611842772724946	0,01688586688300761
1	0	0	0	0	0	2	6786,14	-0,100000001	2,25637794	-5,554567937056224E-005	-0,09998222407751616	0,000225597687	0,029455111068424294	-0,0010990097967809376	0,01855223622190208
1	0	0	0	0	0	2	6846,14	-0,100000001	2,22821307	-5,5545553206569619E-005	-0,099981996982326694	0,000222781193	0,027788743956111411	-0,0010368353993661331	0,020218603334214963
1	0	0	0	0	0	2	6906,14	-0,100000001	2,19729829	-5,5545659775535264E-005	-0,099982188806467174	0,000219690686	0,026122377396094342	-0,00097466102255822797	0,021884969894232029
1	0	0	0	0	0	2	6966,14	-0,100000001	2,16319489	-5,5545408843706054E-005	-0,099981737129169126	0,000216279979	0,024456012988078954	-0,00091248672604439898	0,023551334302247418
1	0	0	0	0	0	2	7026,14	-0,100000001	2,12506247	-5,5545443919797734E-005	-0,099981800266134912	0,000212467567	0,022789648150964765	-0,00085031241352031667	0,02521769913936161
1	0	0	0	0	0	2	7086,14	-0,100000001	2,08139229	-5,554549541241593E-005	-0,099981892952848794	0,000208101541	0,021123283452426829	-0,0007881381061667008	0,026884063837899546
1	0	0	0	0	0	2	7146,14	-0,100000001	2,03161192	-5,5545331309239066E-005	-0,099981597567126861	0,000203123811	0,01945692249724313	-0,00072596393848266458	0,028550424793083242
1	0	0	0	0	0	2	7206,14	-0,100000001	1,97327685	-5,5545424145128992E-005	-0,099981764671730739	0,000197291709	0,017790560839536317	-0,00066378974458654618	0,030216786450790054
1	0	0	0	0	0	2	7266,14	-0,100000001	1,90426791	-5,5545575660549933E-005	-0,099982037399491738	0,000190392588	0,01612419625708753	-0,00060161544156437248	0,031883151033238835
1	0	0	0	0	0	2	7326,14	-0,100000001	1,82347739	-5,5545513827353715E-005	-0,099981926099737203	0,000182314776	0,01445782954519369	-0,00053944105908974099	0,033549517745132698
1	0	0	0	0	0	2	7386,14	-0,100000001	1,73173201	-5,554540867937936E-005	-0,099981736833381069	0,000173141569	0,012791465033469128	-0,00047726675870638317	0,035215882256857261
1	0	0	0	0	0	2	7446,14	-0,100000001	1,62466693	-5,5545475001964307E-005	-0,099981856214035418	0,000162437209	0,011125102105263234	-0,00041509251740623603	0,036882245185063162
1	0	0	0	0	0	2	7506,14	-0,100000001	1,51277077	-5,5545481071703962E-005	-0,099981867139566938	0,000151249653	0,0094587393080401997	-0,00035291828099323546	0,038548607982286208
1	0	0	0	0	0	2	7566,14	-0,100000001	1,40110373	-5,554536524083879E-005	-0,099981658644007117	0,000140084681	0,0077923757765781837	-0,0002907440171847913	0,040214971513748218
1	0	0	0	0	0	2	7626,14	-0,100000001	1,30587745	-5,5545276906341312E-005	-0,099981499641909722	0,000130563581	0,0061260177118873715	-0,00022856995734893094	0,041881329578439014
1	0	0	0	0	0	2	7686,14	-0,100000001	1,2533474	-5,5545399979998669E-005	-0,099981721174495642	0,000125311824	0,0044596609912229363	-0,0001663959476605017	0,04354768629910345
1	0	0	0	0	0	2	7746,14	-0,100000001	1,22552609	-5,5545350247787104E-005	-0,099981631656513728	0,000122530095	0,0027933011305994733	-0,00010422182081597947	0,045214046159726918
1	0	0	0	0	0	2	7806,14	-0,100000001	1,20513272	-5,554539846918649E-005	-0,09998171845503369	0,000120491241	0,0011269395337742515	-4,2047629191435245E-005	0,046880407756552134
1	0	0	0	0	0	2	7822,98	-0,100000001	1,2000916	-2,3317935695664749E-005	-0,09998162163020951	0,000119987104	0,00065925847683560013	-2,4597820153185462E-005	0,047348088813490784