File: Experimentelles/Rohdaten/Batteriemessungen/AlteZelle/Batterietest Li vs LATP/ECLab-Export/LATP vs Li Batterietest Probe2_04_OCV_C02.mpt
EC-Lab ASCII FILE
Nb header lines : 48

Open Circuit Voltage

Run on channel : 2 (SN 6986)
Grouped channel(s) : 2
User :
CE vs. WE compliance from -10 V to 10 V
Electrode connection : standard
Ewe ctrl range : min = 0,00 V, max = 5,00 V
Acquisition started on : 10.28.2014 11:51:47
Saved on :
	File : LATP vs Li Batterietest Probe2_04_OCV_C02.mpr
	Directory : C:\Hupfer\Batterietest Li vs LATP\
	Host : 192.168.0.2
Device : VMP3 (SN 0324)
Address : 192.168.0.1
EC-Lab for windows v10.33 (software)
Internet server v10.33 (firmware)
Command interpretor v10.32 (firmware)
Electrode material : Lithium - LATP folie
Initial state : unbekannt
Electrolyte : LP30
Comments : Batterietest
Comments : Probe 2
Mass of active material : 0,001 mg
 at x = 0,000
Molecular weight of active material (at x = 0) : 0,001 g/mol
Atomic weight of intercalated ion : 0,001 g/mol
Acquisition started at : xo = 0,000
Number of e- transfered per intercalated ion : 1
for DX = 1, DQ = 26,801 mA.h
Battery capacity : 0,000 A.h
Reference electrode : Li+/Li (-3,020 V)
Electrode surface area : 0,001 cm²
Characteristic mass : 0,001 g
tR (h:m:s)          0:30:0,0000
dER/dt (mV/h)       0,0
dER (mV)            0,00
dtR (s)             10,0000
E range min (V)     0,000
E range max (V)     5,000

Number of loops : 1
Loop 0 from point number 0 to 180

mode	error	time/s	Ewe/V
3	0	35861,9670	1,21133602
3	0	35871,9670	1,29607904
3	0	35881,9670	1,32209504
3	0	35891,9670	1,34269428
3	0	35901,9670	1,36134803
3	0	35911,9670	1,37912452
3	0	35921,9670	1,3964622
3	0	35931,9670	1,41347563
3	0	35941,9670	1,43014574
3	0	35951,9670	1,446854
3	0	35961,9670	1,46350503
3	0	35971,9670	1,47998452
3	0	35981,9670	1,49631131
3	0	35991,9670	1,51275253
3	0	36001,9670	1,5290221
3	0	36011,9670	1,54542518
3	0	36021,9670	1,56182837
3	0	36031,9670	1,5782696
3	0	36041,9670	1,59486341
3	0	36051,9670	1,61126649
3	0	36061,9670	1,62789845
3	0	36071,9670	1,64435887
3	0	36081,9670	1,66093361
3	0	36091,9670	1,6775465
3	0	36101,9670	1,69414032
3	0	36111,9670	1,71081042
3	0	36121,9670	1,7275188
3	0	36131,9670	1,74416983
3	0	36141,9670	1,76076365
3	0	36151,9670	1,7771858
3	0	36161,9670	1,7936461
3	0	36171,9670	1,80989671
3	0	36181,9670	1,82588017
3	0	36191,9670	1,84190178
3	0	36201,9670	1,85756099
3	0	36211,9670	1,87310576
3	0	36221,9670	1,8884027
3	0	36231,9670	1,90352786
3	0	36241,9670	1,91832876
3	0	36251,9670	1,93299627
3	0	36261,9670	1,94726312
3	0	36271,9670	1,96116757
3	0	36281,9670	1,97491944
3	0	36291,9670	1,98842347
3	0	36301,9670	2,00160313
3	0	36311,9670	2,01445866
3	0	36321,9670	2,0268755
3	0	36331,9670	2,03925395
3	0	36341,9670	2,05107951
3	0	36351,9670	2,06263804
3	0	36361,9670	2,07394862
3	0	36371,9670	2,08491564
3	0	36381,9670	2,09563494
3	0	36391,9670	2,10593462
3	0	36401,9670	2,11610079
3	0	36411,9670	2,12575173
3	0	36421,9670	2,13521218
3	0	36431,9670	2,14442468
3	0	36441,9670	2,15327477
3	0	36451,9670	2,16191483
3	0	36461,9670	2,17019272
3	0	36471,9670	2,17814636
3	0	36481,9670	2,18568039
3	0	36491,9670	2,19309998
3	0	36501,9670	2,20013785
3	0	36511,9670	2,20702338
3	0	36521,9670	2,21333671
3	0	36531,9670	2,2196691
3	0	36541,9670	2,22548652
3	0	36551,9670	2,23107505
3	0	36561,9670	2,23641562
3	0	36571,9670	2,24145079
3	0	36581,9670	2,2463336
3	0	36591,9670	2,25093031
3	0	36601,9670	2,25524092
3	0	36611,9670	2,25943708
3	0	36621,9670	2,26325178
3	0	36631,9670	2,26699018
3	0	36641,9670	2,270576
3	0	36651,9670	2,27383757
3	0	36661,9670	2,27702284
3	0	36671,9670	2,2799983
3	0	36681,9670	2,28287816
3	0	36691,9670	2,28549123
3	0	36701,9670	2,288028
3	0	36711,9670	2,29048848
3	0	36721,9670	2,2927773
3	0	36731,9670	2,29506612
3	0	36741,9670	2,2971642
3	0	36751,9670	2,29928136
3	0	36761,9670	2,30132222
3	0	36771,9670	2,30311513
3	0	36781,9670	2,30486989
3	0	36791,9670	2,3066628
3	0	36801,9670	2,30828404
3	0	36811,9670	2,30977178
3	0	36821,9670	2,31139302
3	0	36831,9670	2,3129189
3	0	36841,9670	2,31425405
3	0	36851,9670	2,31568456
3	0	36861,9670	2,31709599
3	0	36871,9670	2,31827855
3	0	36881,9670	2,3196137
3	0	36891,9670	2,32085347
3	0	36901,9670	2,3220551
3	0	36911,9670	2,32316113
3	0	36921,9670	2,32417202
3	0	36931,9670	2,32524014
3	0	36941,9670	2,32638454
3	0	36951,9670	2,32731915
3	0	36961,9670	2,32840633
3	0	36971,9670	2,32936001
3	0	36981,9670	2,33042812
3	0	36991,9670	2,33119106
3	0	37001,9670	2,33216381
3	0	37011,9670	2,3329649
3	0	37021,9670	2,33386135
3	0	37031,9670	2,33460522
3	0	37041,9670	2,33563519
3	0	37051,9670	2,33653164
3	0	37061,9670	2,33714199
3	0	37071,9670	2,33788586
3	0	37081,9670	2,33872509
3	0	37091,9670	2,33946896
3	0	37101,9670	2,34019375
3	0	37111,9670	2,34086132
3	0	37121,9670	2,34160519
3	0	37131,9670	2,34223461
3	0	37141,9670	2,34286404
3	0	37151,9670	2,3436079
3	0	37161,9670	2,34435177
3	0	37171,9670	2,34500027
3	0	37181,9670	2,34557247
3	0	37191,9670	2,34629726
3	0	37201,9670	2,34667873
3	0	37211,9670	2,34732723
3	0	37221,9670	2,3479948
3	0	37231,9670	2,34852886
3	0	37241,9670	2,34906292
3	0	37251,9670	2,34959698
3	0	37261,9670	2,3502264
3	0	37271,9670	2,35079861
3	0	37281,9670	2,35125637
3	0	37291,9670	2,35184765
3	0	37301,9670	2,35240078
3	0	37311,9670	2,35291576
3	0	37321,9670	2,35335445
3	0	37331,9670	2,35386944
3	0	37341,9670	2,35428905
3	0	37351,9670	2,35488033
3	0	37361,9670	2,35541439
3	0	37371,9670	2,35577679
3	0	37381,9670	2,35621548
3	0	37391,9670	2,35665417
3	0	37401,9670	2,35722637
3	0	37411,9670	2,35753155
3	0	37421,9670	2,35806561
3	0	37431,9670	2,35854244
3	0	37441,9670	2,35888577
3	0	37451,9670	2,35938168
3	0	37461,9670	2,35983944
3	0	37471,9670	2,36010647
3	0	37481,9670	2,36052608
3	0	37491,9670	2,36096478
3	0	37501,9670	2,36138439
3	0	37511,9670	2,36172771
3	0	37521,9670	2,36209011
3	0	37531,9670	2,36249065
3	0	37541,9670	2,36287212
3	0	37551,9670	2,36332989
3	0	37561,9670	2,36365414
3	0	37571,9670	2,36405444
3	0	37581,9670	2,36453128
3	0	37591,9670	2,36468387
3	0	37601,9670	2,36517978
3	0	37611,9670	2,36546588
3	0	37621,9670	2,36584735
3	0	37631,9670	2,36615252
3	0	37641,9670	2,36641955
3	0	37651,9670	2,36691546
3	0	37661,9670	2,36723971