File: Experimentelles/Ausgewaehlte_Daten/LLTO/PEIS/LLTO_LP30_Li_03_PEIS_C01.mpt
EC-Lab ASCII FILE
Nb header lines : 68

Potentio Electrochemical Impedance Spectroscopy

Run on channel : 1 (SN 6985)
Grouped channel(s) : 1
User :
CE vs. WE compliance from -10 V to 10 V
Electrode connection : standard
Ewe ctrl range : min = 0,00 V, max = 5,00 V
Acquisition started on : 04.22.2015 16:16:38
Saved on :
	File : LLTO_LP30_Li_03_PEIS_C01.mpr
	Directory : C:\Hupfer\Studenten Batterietests\LLTO_LP30_Li\
	Host : 192.168.0.2
Device : VMP3 (SN 0324)
Address : 192.168.0.1
EC-Lab for windows v10.33 (software)
Internet server v10.33 (firmware)
Command interpretor v10.32 (firmware)
Electrode material :
Initial state :
Electrolyte :
Comments :
Mass of active material : 0,001 mg
 at x = 0,000
Molecular weight of active material (at x = 0) : 0,001 g/mol
Atomic weight of intercalated ion : 0,001 g/mol
Acquisition started at : xo = 0,000
Number of e- transfered per intercalated ion : 1
for DX = 1, DQ = 26,801 mA.h
Battery capacity : 0,000 A.h
Electrode surface area : 0,001 cm²
Characteristic mass : 0,001 g
Multi Sine          0
E (V)               0,0000
vs.                 Eoc
tE (h:m:s)          0:00:0,0000
record              0
dI                  0,000
unit dI             mA
dt (s)              0,000
fi                  1,000
unit fi             MHz
ff                  1,000
unit ff             Hz
Sel Nd              1
Nd                  6
Nt                  51
Log                 1
Va (mV)             10,0
pw                  0,10
Na                  2
E range min (V)     0,000
E range max (V)     5,000
I Range             Auto
Bandwidth           5
corr                0
nc cycles           0
goto Ns'            0
nr cycles           0
inc. cycle          0

Number of loops : 1
Loop 0 from point number 0 to 36

freq/Hz	Re(Z)/Ohm	-Im(Z)/Ohm	|Z|/Ohm	Phase(Z)/deg	time/s	<Ewe>/V	<I>/mA	Cs/µF	Cp/µF	cycle number	I Range	|Ewe|/V	|I|/A	Re(Y)/Ohm-1	Im(Y)/Ohm-1	|Y|/Ohm-1	Phase(Y)/deg
1000024,25	1,80810201	-4,10014963	4,48112249	66,20327	1581,8707	3,44180894	0,0506874099	-0,0388159193	-0,0324964337	1	9	0,000482167845	0,000107599786	0,0900428593	-0,204186052	0,223158374	-66,20327
681286,5	12,2878685	-1,56751561	12,3874464	7,26973581	1584,2547	3,44223642	0,0049034874	-0,149031639	-0,00238637463	1	10	0,00177523983	0,000143309589	0,0800779611	-0,010215234	0,0807268918	-7,26973581
464160,125	12,4289093	-0,575225532	12,4422131	2,64982986	1585,4867	3,44242382	0,00999537483	-0,596093178	-0,00127407559	1	10	0,00560999708	0,000450884196	0,0802856162	-0,0037157191	0,0803715512	-2,64982986
316223,094	12,546855	0,287460297	12,550148	-1,31247079	1585,8008	3,44247723	0,00861668121	1,75084901	0,000918558333	1	10	0,0102558406	0,000817188818	0,0796594322	0,0018250728	0,0796803385	1,31247079
215441,859	12,7148008	1,06532812	12,7593527	-4,78942394	1586,2167	3,44260263	0,00872474071	0,693436444	0,00483410573	1	10	0,0101495301	0,000795458094	0,0781002194	0,0065437411	0,0783738792	4,78942394
146777,328	12,9851446	1,90731859	13,1244755	-8,3561182	1586,6328	3,44268155	0,00911040138	0,568509758	0,0120066125	1	10	0,0101385424	0,000772491272	0,0753846392	0,0110728471	0,0761935189	8,3561182
100024,406	13,3881416	2,95074177	13,7094574	-12,4292583	1587,0488	3,44244933	-0,0110800993	0,539241076	0,0249807127	1	10	0,00989381224	0,000721677905	0,0712327585	0,0156996753	0,0729423463	12,4292583
68127,4297	14,0144253	4,02946043	14,5822039	-16,0411263	1587,3627	3,4427228	0,0118771167	0,579764009	0,0442688987	1	10	0,010571843	0,000724982528	0,0659066066	0,0189496223	0,0685767382	16,0411263
46411,125	14,9426527	5,40409184	15,889842	-19,8828011	1587,6767	3,44271994	0,00887192041	0,634563863	0,0733975619	1	10	0,0104905842	0,000660206948	0,0591818504	0,0214034412	0,0629332885	19,8828011
31628,4121	16,3777065	6,91135263	17,7762775	-22,8796272	1587,9907	3,4427228	0,00674238708	0,728080988	0,110058643	1	10	0,0101363482	0,00057021773	0,0518288352	0,0218716431	0,0562547483	22,8796272
21545,4082	18,4409924	8,37702751	20,2545013	-24,4304562	1588,2027	3,44273186	0,00695291953	0,881810904	0,150838509	1	10	0,0108653931	0,000536443375	0,0449511893	0,0204195827	0,0493717417	24,4304562
14672,8496	21,0188789	9,58223343	23,1000538	-24,5076237	1588,5168	3,4427278	0,00869305711	1,13198042	0,194780931	1	10	0,01019789	0,00044146608	0,0393897817	0,0179572869	0,0432899408	24,5076237
10015,2705	23,8585758	10,3563795	26,0093498	-23,4643936	1588,7690	3,44276905	0,0119963447	1,53443849	0,243280008	1	10	0,0102030002	0,000392282003	0,0352683812	0,0153090749	0,0384477116	23,4643936
6856,00244	26,7595596	10,8075762	28,859621	-21,9926586	1589,1194	3,4427731	0,0075584203	2,14793348	0,301228613	1	10	0,0101702707	0,000352404866	0,0321290381	0,0129761854	0,0346504897	21,9926586
4642,42725	29,6947193	11,127821	31,7112713	-20,5430222	1589,5706	3,44276953	0,00919236615	3,08080983	0,379365504	1	10	0,00950531662	0,000299745676	0,0295292176	0,0110658016	0,0315345302	20,5430222
3160,05566	32,6679878	11,288393	34,5633507	-19,0625439	1590,0216	3,44277263	0,0106949629	4,46162748	0,475911111	1	10	0,00982334372	0,0002842127	0,0273458045	0,00944931805	0,0289323796	19,0625439
2152,93286	35,9735489	11,3451576	37,7201385	-17,5039711	1590,7181	3,44276428	0,00104106322	6,51597023	0,589459002	1	11	0,0101561453	0,000269249955	0,0252834726	0,00797377527	0,0265110377	17,5039711
1468,58972	39,2004776	10,987215	40,711132	-15,6572647	1591,1691	3,44276714	0,00136444764	9,86352253	0,718424201	1	11	0,0101502417	0,000249323493	0,0236518439	0,00662920251	0,0245633069	15,6572647
999,040405	42,2506371	10,1665344	43,4565849	-13,5295563	1591,6201	3,44276309	0,000817209133	15,6698256	0,857627809	1	11	0,0101234522	0,000232955543	0,0223728884	0,00538346311	0,0230114721	13,5295563
681,089661	44,8817253	8,96349812	45,7680397	-11,2941618	1592,0706	3,44276524	0,00124730251	26,0698376	0,999928057	1	11	0,0100995125	0,000220667367	0,0214261878	0,00427910453	0,0218493082	11,2941618
464,553894	47,0142784	7,63063908	47,6294975	-9,2189846	1592,5221	3,44276333	0,00102577859	44,8976021	1,1523726	1	11	0,0100897569	0,0002118384	0,0207242016	0,00336363539	0,0209953934	9,2189846
316,315765	48,5640221	6,32458305	48,9741211	-7,41997623	1592,9711	3,44276524	0,00087936956	79,554985	1,32677686	1	11	0,0100824693	0,00020587341	0,0202479642	0,00263693021	0,0204189476	7,41997623
215,344498	49,6675224	5,25653744	49,9449081	-6,04138088	1593,4216	3,44276333	0,00173042307	140,600403	1,55741251	1	11	0,0100761987	0,000201746268	0,0199108608	0,00210725609	0,0200220607	6,04138088
146,737289	50,4898567	4,47981167	50,6882057	-5,0704031	1593,8685	3,44276357	0,00194728724	242,113968	1,89114809	1	11	0,0100753494	0,000198771086	0,0196512546	0,00174359628	0,0197284557	5,0704031
99,9040375	51,078392	4,03901768	51,2378349	-4,52124929	1594,3201	3,44276595	0,00150563766	394,42218	2,45093226	1	11	0,0100733768	0,000196600362	0,0194560941	0,00153848843	0,0195168275	4,52124929
68,1888962	51,5554085	3,91133928	51,7035675	-4,33853102	1594,7822	3,44276714	0,00132558518	596,734253	3,41500163	1	11	0,0100715188	0,000194793494	0,0192856044	0,00146313524	0,0193410255	4,33853102
46,3802681	51,9540367	4,11025953	52,1163712	-4,52344131	1595,2210	3,44276524	0,00152772444	834,867615	5,19287395	1	11	0,010073022	0,000193279426	0,0191280618	0,00151328568	0,0191878285	4,52344131
31,5869217	52,4006577	4,75154543	52,6156464	-5,18125153	1595,6509	3,44276762	0,0011418052	1060,42004	8,64804459	1	11	0,010072561	0,000191436615	0,0189280957	0,00171634683	0,0190057531	5,18125153
21,5220375	52,7897186	5,84884119	53,1127434	-6,32230473	1596,0718	3,4427619	0,00164496328	1264,34888	15,3323641	1	11	0,0100714536	0,000189624057	0,0187133644	0,00207334873	0,0188278724	6,32230473
14,6851501	53,3826599	7,53554964	53,9118996	-8,03484154	1596,5332	3,44276619	0,00158084545	1438,22498	28,0987778	1	11	0,0100729363	0,000186840683	0,0183666926	0,00259266072	0,0185487811	8,03484154
9,9904108	54,0451279	10,2601528	55,0104218	-10,7493496	1596,9841	3,44276094	0,00119818794	1552,68359	54,0132942	1	11	0,0100727985	0,000183107099	0,0178593881	0,00339050079	0,0181783736	10,7493496
6,81718969	54,961689	13,9301596	56,6995277	-14,2222519	1597,3235	3,44276142	0,00081264117	1675,9408	101,160728	1	11	0,0100707691	0,000177616457	0,0170962624	0,00433308491	0,0176368318	14,2222519
4,63925123	56,4627113	18,8746452	59,5339394	-18,4840145	1597,8085	3,44276142	-0,000812767248	1817,57959	182,692963	1	11	0,0100770295	0,000169265288	0,0159306135	0,00532536721	0,0167971421	18,4840145
3,16039586	56,9082184	26,3534584	62,714035	-24,8482418	1598,5024	3,44277	0,00181324442	1910,91345	337,432404	1	11	0,0100733992	0,000160624317	0,0144692324	0,00670051388	0,0159453936	24,8482418
2,1522038	58,4625015	36,6603699	69,006134	-32,0907936	1600,0167	3,44277477	0,00200777175	2017,15784	569,322266	1	12	0,0100760031	0,000146016057	0,0122772744	0,00769877108	0,0144914649	32,0907936
1,46630979	60,3417282	51,0149879	79,0167923	-40,2123375	1601,4782	3,44277883	0,00110411446	2127,63257	886,856628	1	12	0,0100698434	0,000127439285	0,00966448989	0,00817069504	0,0126555376	40,2123375
0,998529792	62,8191071	72,3347626	95,8047943	-49,0273285	1603,6107	3,44278097	0,000654574193	2203,49487	1256,12158	1	12	0,0100721652	0,00010513216	0,00684411451	0,00788084138	0,0104378909	49,0273285