File: Experimentelles/Rohdaten/Batteriemessungen/AlteZelle/Studenten_Batterietests/ASS Batterie 03/ECLab-Export/LiNiMnO-LATP-LTO_3_01_OCV_C01.mpt
EC-Lab ASCII FILE
Nb header lines : 46

Open Circuit Voltage

Run on channel : 1 (SN 6985)
Grouped channel(s) : 1
User :
CE vs. WE compliance from -10 V to 10 V
Electrode connection : standard
Ewe ctrl range : min = -10,00 V, max = 10,00 V
Acquisition started on : 01.29.2015 22:15:06
Saved on :
	File : LiNiMnO-LATP-LTO_3_01_OCV_C01.mpr
	Directory : C:\Hupfer\Studenten Batterietests\ASS Batterie 03\
	Host : 192.168.0.2
Device : VMP3 (SN 0324)
Address : 192.168.0.1
EC-Lab for windows v10.33 (software)
Internet server v10.33 (firmware)
Command interpretor v10.32 (firmware)
Electrode material :
Initial state :
Electrolyte :
Comments :
Mass of active material : 0,001 mg
 at x = 0,000
Molecular weight of active material (at x = 0) : 0,001 g/mol
Atomic weight of intercalated ion : 0,001 g/mol
Acquisition started at : xo = 0,000
Number of e- transfered per intercalated ion : 1
for DX = 1, DQ = 26,801 mA.h
Battery capacity : 0,000 A.h
Electrode surface area : 0,001 cm²
Characteristic mass : 0,001 g
tR (h:m:s)          0:05:0,0000
dER/dt (mV/h)       0,0
dER (mV)            0,00
dtR (s)             5,0000
E range min (V)     -10,000
E range max (V)     10,000

Number of loops : 1
Loop 0 from point number 0 to 60

mode	error	time/s	Ewe/V
3	0	0,0000	0,112085409
3	0	5,0000	0,110214107
3	0	10,0000	0,11074876
3	0	15,0000	0,111531653
3	0	20,0000	0,1132311
3	0	25,0000	0,114701413
3	0	30,0000	0,11611443
3	0	35,0000	0,117241032
3	0	40,0000	0,117279224
3	0	45,0000	0,116018958
3	0	50,0000	0,112620063
3	0	55,0000	0,110252298
3	0	60,0000	0,110653289
3	0	65,0000	0,113307483
3	0	70,0000	0,114854172
3	0	75,0000	0,116190813
3	0	80,0000	0,11701189
3	0	85,0000	0,117202841
3	0	90,0000	0,11611443
3	0	95,0000	0,115503393
3	0	100,0000	0,113975801
3	0	105,0000	0,114319511
3	0	110,0000	0,114033088
3	0	115,0000	0,113975801
3	0	120,0000	0,114166752
3	0	125,0000	0,113040149
3	0	130,0000	0,112772822
3	0	135,0000	0,112410024
3	0	140,0000	0,112390928
3	0	145,0000	0,112734631
3	0	150,0000	0,113765761
3	0	155,0000	0,114243135
3	0	160,0000	0,11412856
3	0	165,0000	0,114109464
3	0	170,0000	0,112753727
3	0	175,0000	0,112505496
3	0	180,0000	0,112257265
3	0	185,0000	0,111760795
3	0	190,0000	0,111512557
3	0	195,0000	0,111207038
3	0	200,0000	0,111283422
3	0	205,0000	0,111340709
3	0	210,0000	0,110977903
3	0	215,0000	0,110500529
3	0	220,0000	0,110443242
3	0	225,0000	0,111149758
3	0	230,0000	0,113135628
3	0	235,0000	0,114434078
3	0	240,0000	0,114987835
3	0	245,0000	0,115083307
3	0	250,0000	0,114987835
3	0	255,0000	0,115274258
3	0	260,0000	0,115350634
3	0	265,0000	0,115121499
3	0	270,0000	0,11447227
3	0	275,0000	0,113632098
3	0	280,0000	0,112295449
3	0	285,0000	0,111818075
3	0	290,0000	0,111359797
3	0	295,0000	0,110882431
3	0	299,9998	0,111035191