File: Experimentelles/Ausgewaehlte_Daten/LATP/PEIS/LATP_Korrosion_04_PEIS_C02.mpt
EC-Lab ASCII FILE
Nb header lines : 73

Potentio Electrochemical Impedance Spectroscopy

Run on channel : 2 (SN 6986)
Grouped channel(s) : 2
User :
CE vs. WE compliance from -10 V to 10 V
Electrode connection : standard
Ewe ctrl range : min = 0,00 V, max = 5,00 V
Acquisition started on : 09/02/2015 11:42:26
Saved on :
	File : LATP_Korrosion_04_PEIS_C02.mpr
	Directory : C:\Hupfer\Stabilitätstest Folie gegen Li\
	Host : 192.168.0.2
Device : VMP3 (SN 0324)
Address : 192.168.0.1
EC-Lab for windows v10.33 (software)
Internet server v10.33 (firmware)
Command interpretor v10.32 (firmware)
Electrode material : LATP
Initial state :
Electrolyte : LP-30
Comments :
Mass of active material : 0,001 mg
 at x = 0,000
Molecular weight of active material (at x = 0) : 0,001 g/mol
Atomic weight of intercalated ion : 0,001 g/mol
Acquisition started at : xo = 0,000
Number of e- transfered per intercalated ion : 1
for DX = 1, DQ = 26,801 mA.h
Battery capacity : 0,000 A.h
Reference electrode : Li+/Li (-3,020 V)
Electrode surface area : 0,001 cm²
Characteristic mass : 0,001 g
Multi Sine          0
E (V)               0,0000
vs.                 Eoc
tE (h:m:s)          0:00:0,0000
record              0
dI                  0,000
unit dI             mA
dt (s)              0,000
fi                  1,000
unit fi             MHz
ff                  1,000
unit ff             Hz
Sel Nd              1
Nd                  6
Nt                  51
Log                 1
Va (mV)             10,0
pw                  0,10
Na                  2
E range min (V)     0,000
E range max (V)     5,000
I Range             Auto
Bandwidth           5
corr                0
nc cycles           0
goto Ns'            0
nr cycles           0
inc. cycle          0

Modify on : 09/02/2015 11:45
Electrode material :
Electrolyte :

Number of loops : 1
Loop 0 from point number 0 to 36

freq/Hz	Re(Z)/Ohm	-Im(Z)/Ohm	|Z|/Ohm	Phase(Z)/deg	time/s	<Ewe>/V	<I>/mA	Cs/µF	Cp/µF	cycle number	I Range	|Ewe|/V	|I|/A	Re(Y)/Ohm-1	Im(Y)/Ohm-1	|Y|/Ohm-1	Phase(Y)/deg
1000024,25	1,09552193	-2,83702946	3,04120111	68,8858795	4087,2353	2,45199513	0,0670796037	-0,0560977906	-0,0488183573	1	9	0,000430075394	0,000141416298	0,118448831	-0,306742221	0,328817457	-68,8858795
681286,5	8,98408794	-0,512199581	8,99867725	3,26300669	4089,6193	2,45269942	0,0604347251	-0,456090599	-0,00147765211	1	10	0,00146644935	0,000162962766	0,110947281	-0,00632531103	0,111127444	-3,26300669
464160,125	9,21133232	0,287688762	9,21582413	-1,78888285	4090,8513	2,4528749	0,0577792898	1,1918714	0,00116146693	1	10	0,00448747259	0,000486931211	0,108456127	0,00338730658	0,108509012	1,78888285
316223,094	9,48811531	1,14682174	9,55717182	-6,89186811	4091,1653	2,45282173	0,0578203015	0,438864678	0,00631922297	1	10	0,0100042829	0,00104678283	0,103877425	0,0125555908	0,104633465	6,89186811
215441,859	9,82479382	1,96542656	10,019455	-11,3125553	4091,5813	2,45265222	0,0574308336	0,375866145	0,0144630093	1	10	0,0101565514	0,00101368304	0,0978667736	0,0195780136	0,0998058319	11,3125553
146777,328	10,2623911	2,85123062	10,6511116	-15,5270472	4091,9973	2,4526217	0,0583010763	0,380302161	0,0272523295	1	10	0,0101786247	0,00095563964	0,0904604346	0,0251328908	0,0938869119	15,5270472
100024,406	10,8072586	3,9560132	11,5085564	-20,1052284	4092,4133	2,45274806	0,0726106465	0,402213305	0,0475258827	1	10	0,0101425871	0,000881308399	0,0815969333	0,029868681	0,0868918747	20,1052284
68127,4297	11,4627104	5,22517109	12,5974655	-24,505434	4092,7273	2,45261216	0,0567152537	0,447092742	0,0769187659	1	10	0,0107437074	0,000852846773	0,0722305551	0,0329256356	0,0793810487	24,505434
46411,125	12,3536777	6,9444685	14,1717672	-29,3419838	4093,0413	2,4526062	0,0559735931	0,493809044	0,118573882	1	10	0,0105846338	0,000746881706	0,061510358	0,0345772915	0,0705628321	29,3419838
31628,4121	13,6138773	9,17949963	16,4195271	-33,9908104	4093,3553	2,45261335	0,0564897694	0,548180699	0,171332777	1	10	0,0101552177	0,000618484162	0,0504964143	0,0340484791	0,0609030947	33,9908104
21545,4082	15,4913235	12,0434475	19,6220722	-37,8626328	4093,5683	2,45260763	0,0560071282	0,613358796	0,231060907	1	10	0,0106174611	0,000541097834	0,0402345136	0,0312795937	0,0509630181	37,8626328
14672,8496	18,3531742	15,5298805	24,0419674	-40,2368546	4093,7803	2,45260978	0,0559828989	0,698453546	0,291429669	1	10	0,01054144	0,000438459974	0,0317520089	0,0268675555	0,0415939353	40,2368546
10015,2705	22,5654221	19,440115	29,7844982	-40,7449074	4094,0325	2,45266128	0,0582097471	0,817445099	0,348237634	1	10	0,0103521235	0,000347567489	0,0254368242	0,0219138302	0,0335745141	40,7449074
6856,00244	28,517313	23,2122002	36,7701416	-39,1445122	4094,3829	2,45266509	0,056171108	1,0000757	0,398542702	1	10	0,0102292793	0,000278195279	0,0210920107	0,0171682369	0,0271959789	39,1445122
4642,42725	36,2635536	25,9601593	44,5979271	-35,5979195	4095,0791	2,45265865	0,0533939414	1,32058907	0,447458774	1	11	0,0102404738	0,000229617712	0,0182322804	0,0130520295	0,022422567	35,5979195
3160,05566	44,838604	26,9668789	52,3231583	-31,0235863	4095,5301	2,45266032	0,052882731	1,86764669	0,496098816	1	11	0,0102083171	0,000195101311	0,0163781252	0,00985014904	0,0191119965	31,0235863
2152,93286	53,2430687	26,0713787	59,2835655	-26,0894718	4095,9816	2,45265341	0,0523966998	2,83547378	0,548384309	1	11	0,010150075	0,00017121229	0,0151493652	0,00741814589	0,0168680809	26,0894718
1468,58972	60,6788826	23,8805943	65,2089691	-21,4824619	4096,4326	2,45265007	0,0518195629	4,53810501	0,608625472	1	11	0,0101125306	0,000155078829	0,0142699657	0,00561604369	0,015335314	21,4824619
999,040405	66,8519287	20,9023457	70,0434723	-17,3627071	4096,8836	2,45265436	0,0513872504	7,62152863	0,678729594	1	11	0,0100825829	0,000143947502	0,0136263203	0,00426049158	0,0142768482	17,3627071
681,089661	71,7144318	17,7119255	73,8692932	-13,8731937	4097,3341	2,4526484	0,0509633273	13,1931982	0,758496761	1	11	0,0100679509	0,000136294126	0,0131425215	0,00324592064	0,0135374246	13,8731937
464,553894	75,3732681	14,6271563	76,7794418	-10,9824762	4097,7856	2,4526453	0,0504786037	23,4220085	0,850068688	1	11	0,0100586284	0,000131006789	0,0127857858	0,00248124707	0,0130243199	10,9824762
316,315765	78,0543747	11,960988	78,9654999	-8,71218586	4098,2346	2,45265174	0,0500181206	42,0661011	0,965142787	1	11	0,0100513063	0,00012728732	0,0125176404	0,00191819284	0,0126637584	8,71218586
215,344498	79,9545746	9,92206669	80,5678711	-7,07402849	4098,6851	2,45265198	0,049573496	74,4876404	1,12970412	1	11	0,0100498525	0,000124737722	0,0123174144	0,0015285454	0,0124118952	7,07402849
146,737289	81,3379898	8,49535465	81,7804337	-5,96264458	4099,1321	2,45264721	0,0491565652	127,672729	1,37772429	1	11	0,010049616	0,000122885336	0,0121617094	0,00127023098	0,012227864	5,96264458
99,9040375	82,4035034	7,82312632	82,774025	-5,42322445	4099,5836	2,45265198	0,0486767851	203,637039	1,8189857	1	11	0,0100466749	0,000121374724	0,0120270066	0,00114180567	0,0120810848	5,42322445
68,1888962	83,44133	7,80067682	83,8051682	-5,34088516	4100,0458	2,45265388	0,0483172014	299,208679	2,59237099	1	11	0,0100458078	0,00011987098	0,0118806344	0,00111068436	0,0119324382	5,34088516
46,3802681	84,5760803	8,3815546	84,9903717	-5,65957689	4100,4845	2,45264792	0,0477939658	409,413605	3,98173165	1	11	0,0100463228	0,000118205426	0,0117086843	0,00116033969	0,0117660388	5,65957689
31,5869217	85,9262543	9,5056715	86,4504395	-6,31273079	4100,9144	2,45265293	0,0476006567	530,066101	6,40857124	1	11	0,0100447601	0,000116190968	0,0114971837	0,00127188675	0,0115673216	6,31273079
21,5220375	87,5782013	11,2067652	88,2923126	-7,29210806	4101,3353	2,45264578	0,0469061136	659,867126	10,6309299	1	11	0,0100423908	0,000113740265	0,0112344082	0,00143758813	0,0113260141	7,29210806
14,6851501	89,6481934	13,4568987	90,6525574	-8,53680992	4101,7967	2,45264983	0,046662353	805,372498	17,7470684	1	11	0,0100465324	0,000110824585	0,010908911	0,0016375134	0,0110311285	8,53680992
9,9904108	92,1176453	16,4862652	93,5812912	-10,1467819	4102,2476	2,45265126	0,0459853411	966,305664	29,9903126	1	11	0,0100476751	0,000107368418	0,0105187651	0,00188253983	0,0106858965	10,1467819
6,81718969	95,2020874	20,4708157	97,3780899	-12,1352415	4102,5871	2,45265031	0,0467747226	1140,45886	50,3996353	1	11	0,0100484844	0,000103190403	0,0100397756	0,0021588013	0,0102692507	12,1352415
4,63925123	98,2547302	25,0697956	101,402596	-14,3136768	4103,3330	2,45265603	0,0453318134	1368,42639	83,6420975	1	12	0,0100495759	9,91057095E-005	0,00955554191	0,00243810634	0,00986168068	14,3136768
3,16039586	102,880501	31,4149303	107,569954	-16,9802399	4104,0269	2,45265746	0,0453026406	1603,0332	136,72023	1	12	0,0100472746	9,34022391E-005	0,00889101066	0,00271490216	0,00929627661	16,9802399
2,1522038	106,932701	41,3333435	114,643135	-21,1333141	4105,0322	2,45266008	0,0445093773	1789,10645	232,563293	1	12	0,0100493077	8,76573031E-005	0,00813606568	0,00314488285	0,00872272067	21,1333141
1,46630979	112,204666	52,4505424	123,858574	-25,0539341	4106,4937	2,45265651	0,0433165282	2069,3999	371,101105	1	12	0,0100471172	8,11176578E-005	0,00731406454	0,00341898995	0,00807372481	25,0539341
0,998529792	120,751617	69,8885956	139,518341	-30,0613899	4108,6265	2,45265579	0,0419810526	2280,61914	572,2724	1	12	0,0100474674	7,20153912E-005	0,00620340789	0,00359040685	0,00716751628	30,0613899