File: Experimentelles/Rohdaten/Batterietests/AlteZelle/Studenten_Batterietests/LiNiMnO_LATP_LTO-Spinell/ECLab-Export/LiNiMnO-LATP-LTO_Spinell_05_OCV_C01.mpt
EC-Lab ASCII FILE
Nb header lines : 46

Open Circuit Voltage

Run on channel : 1 (SN 6985)
Grouped channel(s) : 1
User :
CE vs. WE compliance from -10 V to 10 V
Electrode connection : standard
Ewe ctrl range : min = -5,00 V, max = 5,00 V
Acquisition started on : 02.09.2015 13:33:11
Saved on :
	File : LiNiMnO-LATP-LTO_Spinell_05_OCV_C01.mpr
	Directory : C:\Hupfer\Studenten Batterietests\LiNiMnO_LATP_LTO-Spinell\
	Host : 192.168.0.2
Device : VMP3 (SN 0324)
Address : 192.168.0.1
EC-Lab for windows v10.33 (software)
Internet server v10.33 (firmware)
Command interpretor v10.32 (firmware)
Electrode material :
Initial state :
Electrolyte :
Comments :
Mass of active material : 0,001 mg
 at x = 0,000
Molecular weight of active material (at x = 0) : 0,001 g/mol
Atomic weight of intercalated ion : 0,001 g/mol
Acquisition started at : xo = 0,000
Number of e- transfered per intercalated ion : 1
for DX = 1, DQ = 26,801 mA.h
Battery capacity : 0,000 A.h
Electrode surface area : 0,001 cm²
Characteristic mass : 0,001 g
tR (h:m:s)          0:10:30,0000
dER/dt (mV/h)       0,0
dER (mV)            0,00
dtR (s)             5,0000
E range min (V)     -5,000
E range max (V)     5,000

Number of loops : 1
Loop 0 from point number 0 to 126

mode	error	time/s	Ewe/V
3	0	37213,4868	1,42385864
3	0	37218,4868	1,33907723
3	0	37223,4868	1,33059907
3	0	37228,4868	1,33543015
3	0	37233,4868	1,34150231
3	0	37238,4868	1,33178294
3	0	37243,4868	1,32013512
3	0	37248,4868	1,31347096
3	0	37253,4868	1,31478846
3	0	37258,4868	1,3213954
3	0	37263,4868	1,32607365
3	0	37268,4868	1,3206507
3	0	37273,4868	1,30898368
3	0	37278,4868	1,30207133
3	0	37283,4868	1,30716968
3	0	37288,4868	1,31669796
3	0	37293,4868	1,31192422
3	0	37298,4868	1,29781318
3	0	37303,4868	1,29867244
3	0	37308,4868	1,30970931
3	0	37313,4868	1,30900276
3	0	37318,4868	1,29599917
3	0	37323,4868	1,28771198
3	0	37328,4868	1,29307759
3	0	37333,4868	1,29981816
3	0	37338,4868	1,30205226
3	0	37343,4868	1,30088747
3	0	37348,4868	1,29410875
3	0	37353,4868	1,28648984
3	0	37358,4868	1,27988303
3	0	37363,4868	1,27755344
3	0	37368,4868	1,28070414
3	0	37373,4868	1,28939223
3	0	37378,4868	1,29324949
3	0	37383,4868	1,2870245
3	0	37388,4868	1,28045583
3	0	37393,4868	1,27234054
3	0	37398,4868	1,26928532
3	0	37403,4868	1,2742691
3	0	37408,4868	1,28131509
3	0	37413,4868	1,28524864
3	0	37418,4868	1,28356838
3	0	37423,4868	1,27602589
3	0	37428,4868	1,26697481
3	0	37433,4868	1,26393878
3	0	37438,4868	1,26237297
3	0	37443,4868	1,26691759
3	0	37448,4868	1,27386808
3	0	37453,4868	1,27606404
3	0	37458,4868	1,27728617
3	0	37463,4868	1,27316165
3	0	37468,4868	1,26745224
3	0	37473,4868	1,26197195
3	0	37478,4868	1,25473499
3	0	37483,4868	1,25158441
3	0	37488,4868	1,25322652
3	0	37493,4868	1,25874496
3	0	37498,4868	1,26674569
3	0	37503,4868	1,2659055
3	0	37508,4868	1,26619196
3	0	37513,4868	1,26411068
3	0	37518,4868	1,26080716
3	0	37523,4868	1,25679731
3	0	37528,4868	1,25307381
3	0	37533,4868	1,24429011
3	0	37538,4868	1,24154043
3	0	37543,4868	1,24369812
3	0	37548,4868	1,24744081
3	0	37553,4868	1,25549877
3	0	37558,4868	1,25507879
3	0	37563,4868	1,25723648
3	0	37568,4868	1,25124061
3	0	37573,4868	1,24583685
3	0	37578,4868	1,23611748
3	0	37583,4868	1,23159206
3	0	37588,4868	1,23512459
3	0	37593,4868	1,23886716
3	0	37598,4868	1,24637151
3	0	37603,4868	1,24717343
3	0	37608,4868	1,24784172
3	0	37613,4868	1,24476755
3	0	37618,4868	1,23928726
3	0	37623,4868	1,23699582
3	0	37628,4868	1,23657572
3	0	37633,4868	1,2390008
3	0	37638,4868	1,24266708
3	0	37643,4868	1,238428
3	0	37648,4868	1,22804034
3	0	37653,4868	1,21868384
3	0	37658,4868	1,2264173
3	0	37663,4868	1,23756874
3	0	37668,4868	1,22504246
3	0	37673,4868	1,21774817
3	0	37678,4868	1,23012173
3	0	37683,4868	1,22962523
3	0	37688,4868	1,2130127
3	0	37693,4868	1,22783029
3	0	37698,4868	1,22299933
3	0	37703,4868	1,2124207
3	0	37708,4868	1,22937703
3	0	37713,4868	1,21509397
3	0	37718,4868	1,20951831
3	0	37723,4868	1,22553897
3	0	37728,4868	1,21343279
3	0	37733,4868	1,20592844
3	0	37738,4868	1,22023058
3	0	37743,4868	1,21734715
3	0	37748,4868	1,20170844
3	0	37753,4868	1,2130127
3	0	37758,4868	1,21755719
3	0	37763,4868	1,20048642
3	0	37768,4868	1,20862079
3	0	37773,4868	1,21545684
3	0	37778,4868	1,20054364
3	0	37783,4868	1,19960809
3	0	37788,4868	1,2141583
3	0	37793,4868	1,20147932
3	0	37798,4868	1,19527352
3	0	37803,4868	1,21045399
3	0	37808,4868	1,20191848
3	0	37813,4868	1,19137812
3	0	37818,4868	1,20310235
3	0	37823,4868	1,20573747
3	0	37828,4868	1,18864751
3	0	37833,4868	1,19792771
3	0	37838,4868	1,20424807
3	0	37843,4868	1,1886667