File: Experimentelles/Rohdaten/Batterietests/AlteZelle/Studenten_Batterietests/ASS Batterie 01/ZView-Export/LiNiMnO-LATP-LTO_01_OCV_C01.txt
EC-Lab ASCII FILE
Nb header lines : 46

Open Circuit Voltage

Run on channel : 1 (SN 6985)
Grouped channel(s) : 1
User :
CE vs. WE compliance from -10 V to 10 V
Electrode connection : standard
Ewe ctrl range : min = -2,50 V, max = 2,50 V
Acquisition started on : 01.29.2015 17:04:22
Saved on :
	File : LiNiMnO-LATP-LTO_01_OCV_C01.mpr
	Directory : C:\Hupfer\Studenten Batterietests\ASS Batterie 01\
	Host : 192.168.0.2
Device : VMP3 (SN 0324)
Address : 192.168.0.1
EC-Lab for windows v10.33 (software)
Internet server v10.33 (firmware)
Command interpretor v10.32 (firmware)
Electrode material :
Initial state :
Electrolyte :
Comments :
Mass of active material : 0,001 mg
 at x = 0,000
Molecular weight of active material (at x = 0) : 0,001 g/mol
Atomic weight of intercalated ion : 0,001 g/mol
Acquisition started at : xo = 0,000
Number of e- transfered per intercalated ion : 1
for DX = 1, DQ = 26,801 mA.h
Battery capacity : 0,000 A.h
Electrode surface area : 0,001 cm²
Characteristic mass : 0,001 g
tR (h:m:s)          1:00:0,0000
dER/dt (mV/h)       0,0
dER (mV)            0,00
dtR (s)             5,0000
E range min (V)     -2,500
E range max (V)     2,500

Number of loops : 1
Loop 0 from point number 0 to 162

mode	error	time/s	Ewe/V
3	1	0,0000	0,137419194
3	0	5,0000	0,13971059
3	0	10,0000	0,138946787
3	0	15,0000	0,135967985
3	0	20,0000	0,134516776
3	0	25,0000	0,134096682
3	0	30,0000	0,135967985
3	0	35,0000	0,137915671
3	0	40,0000	0,13942416
3	0	45,0000	0,139920622
3	0	50,0000	0,138144806
3	0	55,0000	0,135815218
3	0	60,0000	0,134898663
3	0	65,0000	0,13400121
3	0	70,0000	0,134574056
3	0	75,0000	0,135872513
3	0	80,0000	0,138373941
3	0	85,0000	0,139576927
3	0	90,0000	0,140264332
3	0	95,0000	0,140302524
3	0	100,0000	0,13862218
3	0	105,0000	0,136292592
3	0	110,0000	0,136101648
3	0	115,0000	0,135242373
3	0	120,0000	0,134803191
3	0	125,0000	0,134669527
3	0	130,0000	0,134745911
3	0	135,0000	0,135662466
3	0	140,0000	0,13654083
3	0	145,0000	0,136502638
3	0	150,0000	0,136693597
3	0	155,0000	0,137037292
3	0	160,0000	0,138583988
3	0	165,0000	0,138354853
3	0	170,0000	0,138545796
3	0	175,0000	0,139347777
3	0	180,0000	0,139576927
3	0	185,0000	0,139385968
3	0	190,0000	0,139557824
3	0	195,0000	0,139977917
3	0	200,0000	0,138774931
3	0	205,0000	0,138717651
3	0	210,0000	0,136999115
3	0	215,0000	0,13694182
3	0	220,0000	0,13654083
3	0	225,0000	0,136922732
3	0	230,0000	0,136980012
3	0	235,0000	0,137075484
3	0	240,0000	0,137381002
3	0	245,0000	0,137228251
3	0	250,0000	0,13659811
3	0	255,0000	0,13573885
3	0	260,0000	0,136292592
3	0	265,0000	0,135471523
3	0	270,0000	0,136025265
3	0	275,0000	0,13688454
3	0	280,0000	0,138908595
3	0	285,0000	0,139863342
3	0	290,0000	0,140359819
3	0	295,0000	0,140627146
3	0	300,0000	0,140187964
3	0	305,0000	0,139634207
3	0	310,0000	0,137400106
3	0	315,0000	0,135891601
3	0	320,0000	0,134421289
3	0	325,0000	0,135586083
3	0	330,0000	0,13862218
3	0	335,0000	0,140474379
3	0	340,0000	0,140646234
3	0	345,0000	0,139786959
3	0	350,0000	0,137762904
3	0	355,0000	0,135204181
3	0	360,0000	0,133695692
3	0	365,0000	0,135166004
3	0	370,0000	0,136388078
3	0	375,0000	0,138698548
3	0	380,0000	0,140627146
3	0	385,0000	0,139557824
3	0	390,0000	0,136368975
3	0	395,0000	0,1355097
3	0	400,0000	0,135376036
3	0	405,0000	0,136044368
3	0	410,0000	0,139405072
3	0	415,0000	0,140970856
3	0	420,0000	0,139958814
3	0	425,0000	0,136407167
3	0	430,0000	0,134230345
3	0	435,0000	0,135681555
3	0	440,0000	0,138240278
3	0	445,0000	0,140092477
3	0	450,0000	0,139997005
3	0	455,0000	0,138163894
3	0	460,0000	0,135605186
3	0	465,0000	0,135166004
3	0	470,0000	0,135146901
3	0	475,0000	0,135719746
3	0	480,0000	0,136865437
3	0	485,0000	0,138889506
3	0	490,0000	0,140608042
3	0	495,0000	0,140168861
3	0	500,0000	0,138755843
3	0	505,0000	0,135376036
3	0	510,0000	0,134516776
3	0	515,0000	0,135261476
3	0	520,0000	0,138507605
3	0	525,0000	0,140187964
3	0	530,0000	0,140531659
3	0	535,0000	0,138182998
3	0	540,0000	0,136368975
3	0	545,0000	0,134593144
3	0	550,0000	0,135910705
3	0	555,0000	0,13862218
3	0	560,0000	0,140474379
3	0	565,0000	0,13948144
3	0	570,0000	0,137266442
3	0	575,0000	0,135815218
3	0	580,0000	0,134535864
3	0	585,0000	0,134230345
3	0	590,0000	0,135013238
3	0	595,0000	0,1362544
3	0	600,0000	0,138431221
3	0	605,0000	0,139538735
3	0	610,0000	0,140302524
3	0	615,0000	0,140149772
3	0	620,0000	0,140493482
3	0	625,0000	0,140168861
3	0	630,0000	0,139901534
3	0	635,0000	0,139519632
3	0	640,0000	0,140187964
3	0	645,0000	0,139958814
3	0	650,0000	0,140035197
3	0	655,0000	0,139806062
3	0	660,0000	0,140092477
3	0	665,0000	0,139672399
3	0	670,0000	0,13908045
3	0	675,0000	0,138297558
3	0	680,0000	0,138583988
3	0	685,0000	0,138106614
3	0	690,0000	0,137495577
3	0	695,0000	0,136922732
3	0	700,0000	0,136789069
3	0	705,0000	0,136579022
3	0	710,0000	0,13608256
3	0	715,0000	0,135242373
3	0	720,0000	0,134497672
3	0	725,0000	0,134497672
3	0	730,0000	0,134688631
3	0	735,0000	0,135261476
3	0	740,0000	0,138106614
3	0	745,0000	0,138450325
3	0	750,0000	0,140397996
3	0	755,0000	0,140818089
3	0	760,0000	0,140245244
3	0	765,0000	0,140245244
3	0	770,0000	0,139405072
3	0	775,0000	0,139977917
3	0	780,0000	0,138373941
3	0	785,0000	0,136750877
3	0	789,0958	0,134707719
3	0	789,0960	0,134421289
3	0	791,7788	0,134669527
3	0	791,7790	0,135013238
3	0	795,6580	0,134707719