File: Experimentelles/Rohdaten/Batteriemessungen/AlteZelle/Studenten_Batterietests/LiCoO2 vs Li 300µm GCPL/ECLab-Export/LiCoO2 vs Li 300µm GCPL_02_GCPL_C04_loop9.mpt
EC-Lab ASCII FILE
Nb header lines : 3
mode	ox/red	error	control changes	Ns changes	counter inc.	Ns	time/s	control/V/mA	Ewe/V	dq/mA.h	<I>/mA	P/W	(Q-Qo)/mA.h	x	Capacity/mA.h
1	0	0	1	1	0	1	99065,01	-0,300000012	4,18198204	0	0	0	0	0	0
1	0	0	1	0	0	1	99165,01	-0,300000012	3,98598528	-0,00083292337078021632	-0,29984648804329645	0,00119518372	-0,0083251436710842893	0,00031062230364286662	0,0083251436710842893
1	0	0	1	0	0	1	99265,01	-0,300000012	3,93991446	-0,00083292171709736192	-0,29984589267338368	0,0011813672	-0,016654388157931142	0,00062139761423544	0,016654388157931142
1	0	0	1	0	0	1	99365,01	-0,300000012	3,90641522	-0,00083293157360951104	-0,29984944031583174	0,00117133639	-0,024983639696911485	0,00093217318795259558	0,024983639696911485
1	0	0	1	0	0	1	99465,02	-0,300000012	3,87779999	-0,00083292043987413248	-0,29984543181791334	0,00116274063	-0,033312841778061958	0,0012429469163316219	0,033312841778061958
1	0	0	1	0	0	1	99565,02	-0,300000012	3,85683441	-0,00083291782309942771	-0,29984448980069325	0,0011564506	-0,041642007136607008	0,0015537192745408656	0,041642007136607008
1	0	0	1	0	0	1	99665,02	-0,300000012	3,82886744	-0,00083292105557024474	-0,29984565346718714	0,00114806928	-0,04997116860314096	0,0018644914875339427	0,04997116860314096
1	0	0	1	0	0	1	99765,02	-0,300000012	3,80807352	-0,0008329146521538496	-0,29984334853067776	0,00114182546	-0,058300325852439309	0,0021752635431762893	0,058300325852439309
1	0	0	1	0	0	1	99865,02	-0,300000012	3,7943573	-0,00083291470666229722	-0,29984336879559546	0,00113771285	-0,066629503272984269	0,002486036351434967	0,066629503272984269
1	0	0	1	0	0	1	99965,03	-0,300000012	3,77713084	-0,00083292668259806106	-0,29984768027416019	0,00113256392	-0,07495875932906455	0,0027968120936911952	0,07495875932906455
1	0	0	1	0	0	1	100065,03	-0,300000012	3,75366616	-0,00083291436537437965	-0,29984324616125997	0,00112551148	-0,083287987858155251	0,0031075868088784307	0,083287987858155251
1	0	0	1	0	0	1	100165,03	-0,300000012	3,73582911	-0,00083290969389180339	-0,29984156445727501	0,00112015684	-0,09161715973288535	0,0034183594102153005	0,09161715973288535
1	0	0	1	0	0	1	100265,03	-0,300000012	3,71043777	-0,00083291661643319654	-0,29984405602115917	0,00111255271	-0,0999463761948336	0,0037291336751612262	0,0999463761948336
1	0	0	1	0	0	1	100365,03	-0,300000012	3,68485546	-0,0008329211768491401	-0,29984569712672646	0,00110488804	-0,10827555234479296	0,004039906436012647	0,10827555234479296
1	0	0	1	0	0	1	100465,04	-0,300000012	3,65791893	-0,00083293541027108826	-0,29985082105735181	0,00109683	-0,11660483253047586	0,0043506830785767917	0,11660483253047586
1	0	0	1	0	0	1	100565,04	-0,300000012	3,63039088	-0,00083291609330640896	-0,299843867084024	0,00108855043	-0,12493402659103496	0,0046614565076967699	0,12493402659103496
1	0	0	1	0	0	1	100665,04	-0,300000012	3,59361053	-0,00083291863490309965	-0,29984478211056	0,00107752532	-0,13326317984376568	0,0049722284142218048	0,13326317984376568
1	0	0	1	0	0	1	100765,04	-0,300000012	3,55461717	-0,00083293340484797952	-0,29985009983139379	0,00106585235	-0,14159233226185258	0,0052830002896051565	0,14159233226185258
1	0	0	1	0	0	1	100865,04	-0,300000012	3,51009154	-0,00083290819897088742	-0,29984102629987072	0,00105246948	-0,14992145204971283	0,00559377094751088	0,14992145204971283
1	0	0	1	0	0	1	100965,05	-0,300000012	3,45866013	-0,00083290877441730765	-0,2998412334529977	0,00103704887	-0,15825048401308934	0,0059045383285670336	0,15825048401308934
1	0	0	1	0	0	1	101065,05	-0,300000012	3,39933085	-0,00083290410719977485	-0,29983955328788858	0,00101925386	-0,16657958607316886	0,0062153083250254234	0,16657958607316886
1	0	0	1	0	0	1	101165,05	-0,300000012	3,33445001	-0,00083292262508637376	-0,29984621927768282	0,000999822281	-0,17490872963405526	0,0065260798699347162	0,17490872963405526
1	0	0	1	0	0	1	101265,05	-0,300000012	3,2676425	-0,00083291743844085274	-0,29984435147992864	0,000979784178	-0,1832379227332825	0,0068368532631861094	0,1832379227332825
1	0	0	1	0	0	1	101365,05	-0,300000012	3,19732499	-0,00083292210494147405	-0,29984603122987238	0,000958705205	-0,19156712251752326	0,0071476269058643469	0,19156712251752326
1	0	0	1	0	0	1	101465,06	-0,300000012	3,12052107	-0,00083291231076419341	-0,29984250539574067	0,000935664866	-0,19989624066794458	0,0074583975026750221	0,19989624066794458
1	0	0	1	0	0	1	101565,06	-0,300000012	3,03255725	-0,00083292408065497869	-0,29984674247616678	0,000909302384	-0,20822543172193277	0,0077691708196157965	0,20822543172193277
1	0	0	1	0	0	1	101665,06	-0,300000012	2,92202544	-0,00083290942196713562	-0,299841465983408	0,00087614439	-0,21655457514046998	0,0080799423592138496	0,21655457514046998
1	0	0	1	0	0	1	101765,06	-0,300000012	2,77801347	-0,00083290600400997542	-0,29984023612606682	0,000832960242	-0,22488369574251146	0,0083907130474977702	0,22488369574251146
1	0	0	1	0	0	1	101865,06	-0,300000012	2,59371114	-0,00083291495466894579	-0,29984345829962093	0,000777707319	-0,23321283117494352	0,0087014842891235021	0,23321283117494352
1	0	0	1	0	0	1	101965,07	-0,300000012	2,37604308	-0,00083293650049467878	-0,29985121465407917	0,000712459383	-0,24154208790197341	0,0090122600564137613	0,24154208790197341
1	0	0	1	0	0	1	102065,07	-0,300000012	2,1471386	-0,00083290777942207117	-0,29984087512565997	0,000643799896	-0,24987129698148403	0,0093230340459110157	0,24987129698148403
1	1	0	0	0	0	2	102148,79	0,300000012	2,98311472	0,00083386032450364698	0,30018378359647526	0,000895482663	-0,25351099990253174	0,0094588362555279283	0,001667731373773681
1	1	0	0	0	0	2	102248,79	0,300000012	3,95138454	0,00083387184595399437	0,30018793149172512	0,00118615793	-0,24517233890098355	0,0091477096021112102	0,010006392375321853
1	1	0	0	0	0	2	102348,79	0,300000012	3,97450566	0,00083386943186653978	0,30018706306644019	0,00119309523	-0,2368336303543335	0,008836581174722816	0,018345100921971933
1	1	0	0	0	0	2	102448,80	0,300000012	3,9895575	0,0008338628518068128	0,30018469452588525	0,00119760411	-0,22849494591848579	0,008525453646940873	0,026683785357819664
1	1	0	0	0	0	2	102548,80	0,300000012	4,00134706	0,00083385745797554662	0,30018275278500128	0,00120113534	-0,22015636115747382	0,0082143298381610675	0,035022370118831578
1	1	0	0	0	0	2	102648,80	0,300000012	4,01178217	0,00083386007341576947	0,30018369432836979	0,00120427157	-0,21181774296762736	0,0079032047821065011	0,043360988308678061
1	1	0	0	0	0	2	102748,80	0,300000012	4,02395344	0,00083386606949898931	0,30018585237245683	0,00120793388	-0,20347912012286842	0,0075920795523708915	0,051699611153437011
1	1	0	0	0	0	2	102848,80	0,300000012	4,03545666	0,00083386875771151642	0,30018681949130291	0,00121139095	-0,19514050648374061	0,0072809546661097562	0,06003822479256489
1	1	0	0	0	0	2	102948,81	0,300000012	4,04564381	0,00083387632795174925	0,30018954472392154	0,00121446	-0,18680181293908461	0,0069698267984659302	0,068376918337220954
1	1	0	0	0	0	2	103048,81	0,300000012	4,05453348	0,0008338621734728416	0,30018444921572371	0,00121710787	-0,17846313585095472	0,0066586995448372198	0,076715595425350797
1	1	0	0	0	0	2	103148,81	0,300000012	4,063519	0,00083387596949603827	0,30018941575580269	0,00121982535	-0,17012444448662163	0,0063475717585441728	0,085054286789683802
1	1	0	0	0	0	2	103248,81	0,300000012	4,07427835	0,00083387852495908736	0,3001903363302889	0,00122305902	-0,16178574349401258	0,0060364436130072051	0,093392987782292851
1	1	0	0	0	0	2	103348,81	0,300000012	4,08383608	0,00083389117649197581	0,30019489121104134	0,0012259467	-0,1534468915539784	0,0057253098354188544	0,10173183972232702
1	1	0	0	0	0	2	103448,82	0,300000012	4,09253502	0,00083386863886978893	0,30018677783088186	0,00122852495	-0,14510812767596406	0,0054141793435428653	0,11007060360034138
1	1	0	0	0	0	2	103548,82	0,300000012	4,10140562	0,00083386405480570266	0,30018512760042202	0,00123118097	-0,13676944810632726	0,0051030519973257946	0,11840928316997816
1	1	0	0	0	0	2	103648,82	0,300000012	4,10976124	0,00083385220925675494	0,30018086296251904	0,00123367168	-0,12843087056624419	0,0047919284579685542	0,12674786071006125
1	1	0	0	0	0	2	103748,82	0,300000012	4,11939526	0,00083387258378002381	0,30018819701648154	0,00123659382	-0,12009222483534474	0,004480802374320272	0,13508650644096074
1	1	0	0	0	0	2	103848,82	0,300000012	4,12862873	0,00083386627076069517	0,30018592421019731	0,00123935624	-0,11175355599397942	0,0041696754283894355	0,14342517528232603
1	1	0	0	0	0	2	103948,83	0,300000012	4,13461876	0,00083386190107299226	0,30018435115371616	0,00124114787	-0,10341494364731038	0,0038585505903516742	0,15176378762899507
1	1	0	0	0	0	2	104048,83	0,300000012	4,1436801	0,00083385507449673293	0,30018189363177869	0,00124385778	-0,095076299471906739	0,003547424564741031	0,16010243180439869
1	1	0	0	0	0	2	104148,83	0,300000012	4,15251303	0,0008338732915884919	0,30018845217195226	0,0012465365	-0,086737686580962842	0,0032362997063956442	0,16844104469534256
1	1	0	0	0	0	2	104248,83	0,300000012	4,16067791	0,00083387400234573427	0,30018870863707712	0,00124898856	-0,078399057002198592	0,0029251742254052429	0,17677967427410678
1	1	0	0	0	0	2	104348,83	0,300000012	4,16754532	0,00083386534329255411	0,30018559145001677	0,001251037	-0,070060430057876864	0,0026140488427094333	0,18511830121842848
1	1	0	0	0	0	2	104448,84	0,300000012	4,17370749	0,00083387121410999027	0,30018770489597632	0,00125289569	-0,061721716429558298	0,0023029202257171542	0,19345701484674707
1	1	0	0	0	0	2	104548,84	0,300000012	4,18154812	0,00083385408538579942	0,30018153854389389	0,00125522353	-0,05338313291274201	0,0019917964633599616	0,20179559836356336
1	1	0	0	0	0	2	104648,84	0,300000012	4,18988466	0,00083384812229871744	0,3001793912564441	0,00125771703	-0,045044522739147386	0,0016806717064025296	0,21013420853715798
1	1	0	0	0	0	2	104748,84	0,300000012	4,19808292	0,00083385546932783386	0,3001820357677289	0,00126018911	-0,036705865527438022	0,0013695451943897928	0,2184728657488673
1	1	0	0	0	0	2	104770,68	0,300000012	4,19989538	0,00015364449714124202	0,30018469625699373	0,00126074429	-0,034884510547919635	0,001301587991266147	0,22029422072838566