File: Experimentelles/Rohdaten/Batteriemessungen/AlteZelle/Studenten_Batterietests/LiCoO2 vs Li 300µm GCPL/ECLab-Export/LiCoO2 vs Li 300µm GCPL_01_OCV_C04.mpt
EC-Lab ASCII FILE
Nb header lines : 48

Open Circuit Voltage

Run on channel : 4 (SN 5435)
Grouped channel(s) : 4
User :
CE vs. WE compliance from -10 V to 10 V
Electrode connection : standard
Ewe ctrl range : min = 0,00 V, max = 5,00 V
Acquisition started on : 01.23.2015 15:04:13
Saved on :
	File : LiCoO2 vs Li 300µm GCPL_01_OCV_C04.mpr
	Directory : C:\Hupfer\Studenten Batterietests\LiCoO2 vs Li 300µm GCPL\
	Host : 192.168.0.2
Device : VMP3 (SN 0324)
Address : 192.168.0.1
EC-Lab for windows v10.33 (software)
Internet server v10.33 (firmware)
Command interpretor v10.32 (firmware)
Electrode material : LiCoO2 vs Li
Initial state : charged
Electrolyte : LP30
Comments : 300µm
Mass of active material : 0,001 mg
 at x = 0,000
Molecular weight of active material (at x = 0) : 0,001 g/mol
Atomic weight of intercalated ion : 0,001 g/mol
Acquisition started at : xo = 0,000
Number of e- transfered per intercalated ion : 1
for DX = 1, DQ = 26,801 mA.h
Battery capacity : 0,000 A.h
Reference electrode : Li+/Li (-3,020 V)
Electrode surface area : 0,001 cm²
Characteristic mass : 0,001 g
Create one data file per loop
tR (h:m:s)          1:00:0,0000
dER/dt (mV/h)       0,0
dER (mV)            0,00
dtR (s)             5,0000
E range min (V)     0,000
E range max (V)     5,000

Number of loops : 1
Loop 0 from point number 0 to 720

mode	error	time/s	Ewe/V
3	1	0,0000	2,82233405
3	0	15,0000	2,82124662
3	0	30,0000	2,82174277
3	0	45,0000	2,82916355
3	0	60,0000	2,82607317
3	0	75,0000	2,82563448
3	0	90,0000	2,82828617
3	0	105,0000	2,83244491
3	0	120,0000	2,8396368
3	0	135,0000	2,84068608
3	0	150,0000	2,84011388
3	0	165,0000	2,84198332
3	0	180,0000	2,84030461
3	0	195,0000	2,84234571
3	0	210,0000	2,84591317
3	0	225,0000	2,84104848
3	0	240,0000	2,84308982
3	0	255,0000	2,84402466
3	0	270,0000	2,84881282
3	0	285,0000	2,85104489
3	0	300,0000	2,84866023
3	0	315,0000	2,84860301
3	0	330,0000	2,84740114
3	0	345,0000	2,84619927
3	0	360,0000	2,84612298
3	0	375,0000	2,84616113
3	0	390,0000	2,8455317
3	0	405,0000	2,84738207
3	0	420,0000	2,8487556
3	0	435,0000	2,84850764
3	0	450,0000	2,84713411
3	0	465,0000	2,84352851
3	0	480,0000	2,84276557
3	0	495,0000	2,84301353
3	0	510,0000	2,83658457
3	0	525,0000	2,83816791
3	0	540,0000	2,8368516
3	0	555,0000	2,83835864
3	0	570,0000	2,84038091
3	0	585,0000	2,84167814
3	0	600,0000	2,83635569
3	0	615,0000	2,83616495
3	0	630,0000	2,83507752
3	0	645,0000	2,83431435
3	0	660,0000	2,82620668
3	0	675,0000	2,82550073
3	0	690,0000	2,82876301
3	0	705,0000	2,82574892
3	0	720,0000	2,82761836
3	0	735,0000	2,82717967
3	0	750,0000	2,82582521
3	0	765,0000	2,82193351
3	0	780,0000	2,82168555
3	0	795,0000	2,82124662
3	0	810,0000	2,82014012
3	0	825,0000	2,81949162
3	0	840,0000	2,82042646
3	0	855,0000	2,82197165
3	0	870,0000	2,81783199
3	0	885,0000	2,81523752
3	0	900,0000	2,81479859
3	0	915,0000	2,81516123
3	0	930,0000	2,82372665
3	0	945,0000	2,82933521
3	0	960,0000	2,83227324
3	0	975,0000	2,8360312
3	0	990,0000	2,83622217
3	0	1005,0000	2,8367753
3	0	1020,0000	2,83540177
3	0	1035,0000	2,83629847
3	0	1050,0000	2,83639383
3	0	1065,0000	2,83732843
3	0	1080,0000	2,8375957
3	0	1095,0000	2,83564973
3	0	1110,0000	2,8209796
3	0	1125,0000	2,82141829
3	0	1140,0000	2,8212657
3	0	1155,0000	2,82164741
3	0	1170,0000	2,81815624
3	0	1185,0000	2,81764102
3	0	1200,0000	2,81746936
3	0	1215,0000	2,81903386
3	0	1230,0000	2,82441354
3	0	1245,0000	2,82162809
3	0	1260,0000	2,82105589
3	0	1275,0000	2,81783199
3	0	1290,0000	2,81672549
3	0	1305,0000	2,81456971
3	0	1320,0000	2,81428361
3	0	1335,0000	2,81123137
3	0	1350,0000	2,81455064
3	0	1365,0000	2,81418824
3	0	1380,0000	2,81397843
3	0	1395,0000	2,8154664
3	0	1410,0000	2,81418824
3	0	1425,0000	2,81252861
3	0	1440,0000	2,81264305
3	0	1455,0000	2,8183279
3	0	1470,0000	2,82309723
3	0	1485,0000	2,8270843
3	0	1500,0000	2,82620668
3	0	1515,0000	2,82382202
3	0	1530,0000	2,82382202
3	0	1545,0000	2,81941533
3	0	1560,0000	2,81725955
3	0	1575,0000	2,81790829
3	0	1590,0000	2,81672549
3	0	1605,0000	2,81645846
3	0	1620,0000	2,81746936
3	0	1635,0000	2,81565714
3	0	1650,0000	2,81624842
3	0	1665,0000	2,81424546
3	0	1680,0000	2,81035376
3	0	1695,0000	2,81043005
3	0	1710,0000	2,81027746
3	0	1725,0000	2,8112886
3	0	1740,0000	2,812433
3	0	1755,0000	2,81327248
3	0	1770,0000	2,82162809
3	0	1785,0000	2,82313538
3	0	1800,0000	2,82792354
3	0	1815,0000	2,83128119
3	0	1830,0000	2,83097601
3	0	1845,0000	2,83475304
3	0	1860,0000	2,83461952
3	0	1875,0000	2,83450508
3	0	1890,0000	2,83708048
3	0	1905,0000	2,83847308
3	0	1920,0000	2,83843493
3	0	1935,0000	2,84057164
3	0	1950,0000	2,84371924
3	0	1965,0000	2,84333777
3	0	1979,9999	2,8396368
3	0	1994,9999	2,83940792
3	0	2009,9999	2,84099126
3	0	2024,9999	2,83919811
3	0	2039,9999	2,83736658
3	0	2054,9999	2,83818698
3	0	2069,9999	2,83780551
3	0	2084,9999	2,83593583
3	0	2099,9999	2,83231139
3	0	2114,9999	2,83605027
3	0	2129,9999	2,83473396
3	0	2144,9999	2,83673716
3	0	2159,9999	2,83448601
3	0	2174,9999	2,83336043
3	0	2189,9999	2,83366585
3	0	2204,9999	2,83652735
3	0	2219,9999	2,8386066
3	0	2234,9999	2,83736658
3	0	2249,9999	2,83889294
3	0	2264,9999	2,83957958
3	0	2279,9999	2,84225035
3	0	2294,9999	2,84482574
3	0	2309,9999	2,84349036
3	0	2324,9999	2,84276557
3	0	2339,9999	2,84276557
3	0	2354,9999	2,84234571
3	0	2369,9999	2,84038091
3	0	2384,9999	2,84011388
3	0	2399,9999	2,84350944
3	0	2414,9999	2,84518814
3	0	2429,9999	2,85106397
3	0	2444,9999	2,84793544
3	0	2459,9999	2,85001469
3	0	2474,9999	2,84835505
3	0	2489,9999	2,84383368
3	0	2504,9999	2,8399992
3	0	2519,9999	2,83469582
3	0	2534,9999	2,8311286
3	0	2549,9999	2,83057523
3	0	2564,9999	2,83229232
3	0	2579,9999	2,83631754
3	0	2594,9999	2,83568788
3	0	2609,9999	2,83368492
3	0	2624,9999	2,83523011
3	0	2639,9999	2,83572602
3	0	2654,9999	2,83658457
3	0	2669,9999	2,84095311
3	0	2684,9999	2,84377646
3	0	2699,9999	2,84358573
3	0	2714,9999	2,84431076
3	0	2729,9999	2,84366202
3	0	2744,9999	2,83799624
3	0	2759,9999	2,83683252
3	0	2774,9999	2,83460045
3	0	2789,9999	2,83406639
3	0	2804,9999	2,83425713
3	0	2819,9999	2,8379581
3	0	2834,9999	2,8317008
3	0	2849,9999	2,83120489
3	0	2864,9999	2,82922077
3	0	2879,9999	2,83189154
3	0	2894,9999	2,83086157
3	0	2909,9999	2,82870579
3	0	2924,9999	2,82939243
3	0	2939,9999	2,82746577
3	0	2954,9999	2,8271606
3	0	2969,9999	2,82834339
3	0	2984,9999	2,83351326
3	0	2999,9999	2,83419991
3	0	3014,9999	2,83175802
3	0	3029,9999	2,83357048
3	0	3044,9999	2,83255935
3	0	3059,9999	2,83139563
3	0	3074,9999	2,82931614
3	0	3089,9999	2,8292017
3	0	3104,9999	2,83049893
3	0	3119,9999	2,8310523
3	0	3134,9999	2,83204412
3	0	3149,9999	2,83366585
3	0	3164,9999	2,8346386
3	0	3179,9999	2,83618402
3	0	3194,9999	2,83475304
3	0	3209,9999	2,83751941
3	0	3224,9999	2,83452415
3	0	3239,9999	2,83330321
3	0	3254,9999	2,83246398
3	0	3269,9999	2,8311286
3	0	3284,9999	2,8310523
3	0	3299,9999	2,83160543
3	0	3314,9999	2,82979321
3	0	3329,9999	2,82803798
3	0	3344,9999	2,82532907
3	0	3359,9999	2,82706523
3	0	3374,9999	2,82792354
3	0	3389,9999	2,82723689
3	0	3404,9999	2,82641649
3	0	3419,9999	2,82567263
3	0	3434,9999	2,82656908
3	0	3449,9999	2,82693172
3	0	3464,9999	2,82557702
3	0	3479,9999	2,82351685
3	0	3494,9999	2,82176185
3	0	3509,9999	2,81880474
3	0	3524,9999	2,81903386
3	0	3539,9999	2,81630564
3	0	3554,9999	2,81605768
3	0	3569,9999	2,81647754
3	0	3584,9999	2,8155427
3	0	3599,9999	2,81485581