File: Experimentelles/Rohdaten/Batterietests/AlteZelle/Studenten_Batterietests/ASS Batterie 03/ZView-Export/LiNiMnO-LATP-LTO_2_02_GCPL_C01.txt
EC-Lab ASCII FILE
Nb header lines : 81

Galvanostatic Cycling with Potential Limitation

Run on channel : 1 (SN 6985)
Grouped channel(s) : 1
User :
CE vs. WE compliance from -10 V to 10 V
Electrode connection : standard
Ewe ctrl range : min = -10,00 V, max = 10,00 V
Acquisition started on : 01.29.2015 21:34:39
Saved on :
	File : LiNiMnO-LATP-LTO_2_02_GCPL_C01.mpr
	Directory : C:\Hupfer\Studenten Batterietests\ASS Batterie 03\
	Host : 192.168.0.2
Device : VMP3 (SN 0324)
Address : 192.168.0.1
EC-Lab for windows v10.33 (software)
Internet server v10.33 (firmware)
Command interpretor v10.32 (firmware)
Electrode material :
Initial state :
Electrolyte :
Comments :
Mass of active material : 0,001 mg
 at x = 0,000
Molecular weight of active material (at x = 0) : 0,001 g/mol
Atomic weight of intercalated ion : 0,001 g/mol
Acquisition started at : xo = 0,000
Number of e- transfered per intercalated ion : 1
for DX = 1, DQ = 26,801 mA.h
Battery capacity : 0,000 A.h
Electrode surface area : 0,001 cm²
Characteristic mass : 0,001 g
Ns                  0                   1                   2
Set I/C             I                   I                   I
Is                  0,000               10,000              -10,000
unit Is             mA                  µA                  µA
vs.                 <None>              <None>              <None>
N                   1                   1                   1
I sign              > 0                 > 0                 > 0
t1 (h:m:s)          0:00:0,0000         10:00:0,0000        10:00:0,0000
I Range             1 mA                1 mA                1 mA
Bandwidth           5                   5                   5
dE1 (mV)            0,00                0,00                0,00
dt1 (s)             0,0000              10,0000             10,0000
EM (V)              0,000               2,000               0,000
tM (h:m:s)          0:00:0,0000         0:00:0,0000         0:00:0,0000
Im                  0,000               0,000               0,000
unit Im             mA                  mA                  mA
E range min (V)     -10,000             -10,000             -10,000
E range max (V)     10,000              10,000              10,000
dq                  0,000               1,000               1,000
unit dq             mA.h                mA.h                mA.h
dtq (s)             0,0000              120,0000            120,0000
dQM                 0,000               0,000               0,000
unit dQM            mA.h                mA.h                mA.h
dxM                 0,000               0,000               0,000
tR (h:m:s)          0:00:0,0000         0:00:0,0000         0:00:0,0000
dER/dt (mV/h)       0,0                 0,1                 0,1
dER (mV)            0,00                5,00                5,00
dtR (s)             1,0000              120,0000            120,0000
EL (V)              pass                4,200               4,200
goto Ns'            0                   0                   0
nc cycles           0                   0                   0

Number of loops : 11
Loop 0 from point number 0 to 3
Loop 1 from point number 4 to 7
Loop 2 from point number 8 to 11
Loop 3 from point number 12 to 15
Loop 4 from point number 16 to 19
Loop 5 from point number 20 to 23
Loop 6 from point number 24 to 27
Loop 7 from point number 28 to 31
Loop 8 from point number 32 to 35
Loop 9 from point number 36 to 39
Loop 10 from point number 40 to 43

mode	ox/red	error	control changes	Ns changes	counter inc.	Ns	time/s	control/V/mA	Ewe/V	dq/mA.h	<I>/mA	P/W	(Q-Qo)/mA.h	x	Capacity/mA.h
1	1	0	1	1	0	1	600,0010	0,0100000007	0,106891595	0	0	0	0	0	0
1	1	0	1	0	0	1	600,0524	0,0100000007	4,18477011	2,5920431144186294E-009	0,00018154388030422045	7,59719399E-007	2,5920431144186294E-009	-9,6712613637991514E-011	2,5920431144186294E-009
1	0	0	0	1	0	2	600,0530	-0,0100000007	2,89409161	7,5747599152641165E-010	0,004544856063971191	1,31532297E-005	3,3495191059450406E-009	-1,2497506131914411E-010	7,5747599152641165E-010
1	0	0	0	0	0	2	600,0552	-0,0100000007	-2,63252807	-1,8794252132971046E-009	-0,0030754231539960768	8,09613812E-006	1,4700938926479363E-009	-5,4851179696954893E-011	2,6369012048235162E-009
1	1	0	1	1	0	1	600,1058	0,0100000007	0,0878157839	0	0	0	1,4700938926479363E-009	-5,4851179696954893E-011	0
1	1	0	1	0	0	1	600,1572	0,0100000007	4,17827415	2,5817971982178282E-009	0,00018082626747825382	7,55541748E-007	4,0518910908657645E-009	-1,5118150442571366E-010	2,5817971982178282E-009
1	0	0	0	1	0	2	600,1578	-0,0100000007	2,88839769	7,4546354719334182E-010	0,0044727813961520128	1,29191712E-005	4,7973546380591066E-009	-1,7899575165789629E-010	7,4546354719334182E-010
1	0	0	0	0	0	2	600,1600	-0,0100000007	-2,63499117	-1,8804851942048928E-009	-0,0030771576682526381	8,10828351E-006	2,9168694438542138E-009	-1,0883232072287798E-010	2,6259487413982346E-009
1	1	0	1	1	0	1	600,2106	0,0100000007	0,0866509899	0	0	0	2,9168694438542138E-009	-1,0883232072287798E-010	0
1	1	0	1	0	0	1	600,2620	0,0100000007	4,17538738	2,582150504976097E-009	0,00018085101269930243	7,5512304E-007	5,499019948830311E-009	-2,0517582780181379E-010	2,582150504976097E-009
1	0	0	0	1	0	2	600,2626	-0,0100000007	2,88510966	7,5429624929610214E-010	0,0045257776101073728	1,30573644E-005	6,2533161981264128E-009	-2,3331963502514464E-010	7,5429624929610214E-010
1	0	0	0	0	0	2	600,2648	-0,0100000007	-2,64020419	-1,8889645547864752E-009	-0,0030910329859184749	8,1609578E-006	4,3643516433399379E-009	-1,6283982774620592E-010	2,6432608040825773E-009
1	1	0	1	1	0	1	600,3154	0,0100000007	0,0815144628	0	0	0	4,3643516433399379E-009	-1,6283982774620592E-010	0
1	1	0	1	0	0	1	600,3670	0,0100000007	4,4023428	2,9656021862239066E-009	0,00020690248333544096	9,10855647E-007	7,3299538295638438E-009	-2,7349043260876611E-010	2,9656021862239066E-009
1	0	0	0	1	0	2	600,3676	-0,0100000007	3,08407664	7,8856716087708864E-010	0,0047314030847878272	1,45920094E-005	8,1185209904409331E-009	-3,029129336209143E-010	7,8856716087708864E-010
1	0	0	0	0	0	2	600,3698	-0,0100000007	-2,53357816	-1,8091168749378995E-009	-0,0029603731428655149	7,50033678E-006	6,3094041155030336E-009	-2,3541235063347331E-010	2,5976840358149878E-009
1	1	0	1	1	0	1	600,4204	0,0100000007	0,0816481262	0	0	0	6,3094041155030336E-009	-2,3541235063347331E-010	0
1	1	0	1	0	0	1	600,4720	0,0100000007	4,39833307	2,9581826763913139E-009	0,00020638484310148576	9,07749268E-007	9,2675867918943475E-009	-3,457861236085424E-010	2,9581826763913139E-009
1	0	0	0	1	0	2	600,4726	-0,0100000007	3,08014703	7,8856716087708864E-010	0,0047314030847878272	1,45734175E-005	1,0056153952771437E-008	-3,7520862462069056E-010	7,8856716087708864E-010
1	0	0	0	0	0	2	600,4748	-0,0100000007	-2,53411293	-1,8158297930818259E-009	-0,0029713579182876211	7,52975666E-006	8,2403241596896115E-009	-3,0745757363168525E-010	2,6043969539589142E-009
1	1	0	1	1	0	1	600,5254	0,0100000007	0,0836530924	0	0	0	8,2403241596896115E-009	-3,0745757363168525E-010	0
1	1	0	1	0	0	1	600,5768	0,0100000007	4,17073584	2,5853303050098474E-009	0,00018107372243491885	7,55210635E-007	1,0825654464699459E-008	-4,0391972332516691E-010	2,5853303050098474E-009
1	0	0	0	1	0	2	600,5774	-0,0100000007	2,88021779	7,5182316100431808E-010	0,004510939079981815	1,29924874E-005	1,1577477625703778E-008	-4,3197125629922874E-010	7,5182316100431808E-010
1	0	0	0	0	0	2	600,5796	-0,0100000007	-2,64186549	-1,8702392311145862E-009	-0,0030603915464085888	8,08514324E-006	9,7072383945891917E-009	-3,6219011602295373E-010	2,6220623921189043E-009
1	1	0	1	1	0	1	600,6302	0,0100000007	0,0818390772	0	0	0	9,7072383945891917E-009	-3,6219011602295373E-010	0
1	1	0	1	0	0	1	600,6818	0,0100000007	4,40362597	2,9627756157424301E-009	0,00020670528073872832	9,10252766E-007	1,2670014010331622E-008	-4,7273525774048557E-010	2,9627756157424301E-009
1	0	0	0	1	0	2	600,6824	-0,0100000007	3,08527946	7,8750723817696166E-010	0,0047250435484264102	1,45780796E-005	1,3457521248508586E-008	-5,0211821161161075E-010	7,8750723817696166E-010
1	0	0	0	0	0	2	600,6846	-0,0100000007	-2,52916741	-1,8048771695854765E-009	-0,0029534354430226522	7,46973274E-006	1,1652644078923107E-008	-4,3477581773121318E-010	2,5923844077624381E-009
1	1	0	1	1	0	1	600,7352	0,0100000007	0,0844168887	0	0	0	1,1652644078923107E-008	-4,3477581773121318E-010	0
1	1	0	1	0	0	1	600,7868	0,0100000007	4,40138054	2,9585358546076653E-009	0,00020640948344278387	9,08486697E-007	1,4611179933530771E-008	-5,4516276826038739E-010	2,9585358546076653E-009
1	0	0	0	1	0	2	600,7874	-0,0100000007	3,08375573	7,8856716087708864E-010	0,0047314030847878272	1,45904914E-005	1,5399747094407862E-008	-5,7458526927253562E-010	7,8856716087708864E-010
1	0	0	0	0	0	2	600,7896	-0,0100000007	-2,53262353	-1,8052305482948819E-009	-0,0029540136991071974	7,48140474E-006	1,3594516546112981E-008	-5,0722969035736736E-010	2,5937977091719706E-009
1	1	0	1	1	0	1	600,8402	0,0100000007	0,0801396295	0	0	0	1,3594516546112981E-008	-5,0722969035736736E-010	0
1	1	0	1	0	0	1	600,8918	0,0100000007	4,39688921	2,9698417880960429E-009	0,00020719826952003898	9,11027826E-007	1,6564358334209021E-008	-6,1803848046598234E-010	2,9698417880960429E-009
1	0	0	0	1	0	2	600,8924	-0,0100000007	3,07862329	7,9139362141076058E-010	0,0047483618484182733	1,46184175E-005	1,7355751955619782E-008	-6,4756644052085824E-010	7,9139362141076058E-010
1	0	0	0	0	0	2	600,8946	-0,0100000007	-2,53487659	-1,8098235385777018E-009	-0,0029615295015780397	7,5071116E-006	1,554592841704208E-008	-5,8003949096289702E-010	2,6012171599884621E-009
1	1	0	1	1	0	1	600,9452	0,0100000007	0,0818008855	0	0	0	1,554592841704208E-008	-5,8003949096289702E-010	0
1	1	0	1	0	0	1	600,9968	0,0100000007	4,4023428	2,957829266152759E-009	0,00020636018657259158	9,0846828E-007	1,8503757683194838E-008	-6,9040007772680038E-010	2,957829266152759E-009
1	0	0	0	1	0	2	600,9974	-0,0100000007	3,08391619	7,8927372427036365E-010	0,0047356424652545728	1,46043249E-005	1,9293031407465203E-008	-7,1984894156913626E-010	7,8927372427036365E-010
1	0	0	0	0	0	2	600,9996	-0,0100000007	-2,52737236	-1,8098234334805357E-009	-0,002961529329600855	7,48488719E-006	1,7483207973984666E-008	-6,5232199593249139E-010	2,5990971577508992E-009
1	1	0	1	1	0	1	601,0502	0,0100000007	0,0867082775	0	0	0	1,7483207973984666E-008	-6,5232199593249139E-010	0
1	1	0	1	0	0	1	601,1016	0,0100000007	4,17546749	2,5927497295520474E-009	0,00018159337085956224	7,58237206E-007	2,007595770353671E-008	-7,490609743311648E-010	2,5927497295520474E-009
1	0	0	0	1	0	2	601,1022	-0,0100000007	2,8859117	7,5959588866680858E-010	0,0045575754471348909	1,31527604E-005	2,083555359220352E-008	-7,7740251822485773E-010	7,5959588866680858E-010
1	0	0	0	0	0	2	601,1044	-0,0100000007	-2,6410253	-1,8808383611030877E-009	-0,0030777355777370106	8,12837789E-006	1,8954715231100432E-008	-7,0722591015802982E-010	2,640434249769896E-009