File: Experimentelles/Rohdaten/Batteriemessungen/AlteZelle/Studenten_Batterietests/LiCoO2 vs Li 200µm IS + GCPL/ZView_Export/LiCoO2 vs Li 200µm IS + GCPL_03_OCV_C03.txt
EC-Lab ASCII FILE
Nb header lines : 46

Open Circuit Voltage

Run on channel : 3 (SN 6987)
Grouped channel(s) : 3
User :
CE vs. WE compliance from -10 V to 10 V
Electrode connection : standard
Ewe ctrl range : min = 0,00 V, max = 5,00 V
Acquisition started on : 01.23.2015 14:58:37
Saved on :
	File : LiCoO2 vs Li 200µm IS + GCPL_03_OCV_C03.mpr
	Directory : C:\Hupfer\Studenten Batterietests\LiCoO2 vs Li 200µm IS + GCPL\
	Host : 192.168.0.2
Device : VMP3 (SN 0324)
Address : 192.168.0.1
EC-Lab for windows v10.33 (software)
Internet server v10.33 (firmware)
Command interpretor v10.32 (firmware)
Electrode material : LiCoO2 vs Li
Initial state :
Electrolyte : LP30
Comments : 200µm
Mass of active material : 0,001 mg
 at x = 0,000
Molecular weight of active material (at x = 0) : 0,001 g/mol
Atomic weight of intercalated ion : 0,001 g/mol
Acquisition started at : xo = 0,000
Number of e- transfered per intercalated ion : 1
for DX = 1, DQ = 26,801 mA.h
Battery capacity : 0,000 A.h
Electrode surface area : 0,001 cm²
Characteristic mass : 0,001 g
tR (h:m:s)          1:00:0,0000
dER/dt (mV/h)       0,0
dER (mV)            0,00
dtR (s)             5,0000
E range min (V)     0,000
E range max (V)     5,000

Number of loops : 1
Loop 0 from point number 0 to 720

mode	error	time/s	Ewe/V
3	0	3616,8129	2,87990427
3	0	3631,8129	2,87670279
3	0	3646,8129	2,87717938
3	0	3661,8129	2,87706494
3	0	3676,8129	2,87969565
3	0	3691,8129	2,87988639
3	0	3706,8129	2,87986732
3	0	3721,8129	2,88141155
3	0	3736,8129	2,88129711
3	0	3751,8129	2,88230753
3	0	3766,8129	2,8834703
3	0	3781,8129	2,88282228
3	0	3796,8129	2,88377547
3	0	3811,8129	2,8853004
3	0	3826,8129	2,88644433
3	0	3841,8129	2,88690186
3	0	3856,8129	2,88642526
3	0	3871,8129	2,88514805
3	0	3886,8129	2,88486195
3	0	3901,8129	2,88337493
3	0	3916,8129	2,88234568
3	0	3931,8129	2,88230753
3	0	3946,8129	2,88373733
3	0	3961,8129	2,88179278
3	0	3976,8129	2,8820405
3	0	3991,8129	2,88118267
3	0	4006,8129	2,88062978
3	0	4021,8129	2,88112545
3	0	4036,8129	2,88167834
3	0	4051,8129	2,8820405
3	0	4066,8129	2,88173556
3	0	4081,8129	2,88343215
3	0	4096,8129	2,89018083
3	0	4111,8129	2,89153433
3	0	4126,8129	2,89391732
3	0	4141,8129	2,89193463
3	0	4156,8129	2,8876071
3	0	4171,8129	2,88533854
3	0	4186,8129	2,88562465
3	0	4201,8129	2,88638711
3	0	4216,8129	2,88934183
3	0	4231,8129	2,88979936
3	0	4246,8129	2,8903904
3	0	4261,8129	2,89050484
3	0	4276,8129	2,89141989
3	0	4291,8129	2,89193463
3	0	4306,8129	2,89134359
3	0	4321,8129	2,89391732
3	0	4336,8129	2,89418411
3	0	4351,8129	2,89490843
3	0	4366,8129	2,89210606
3	0	4381,8129	2,89210606
3	0	4396,8129	2,89260173
3	0	4411,8129	2,89233494
3	0	4426,8129	2,89475608
3	0	4441,8129	2,90457368
3	0	4456,8129	2,90567946
3	0	4471,8129	2,90564132
3	0	4486,8129	2,90579391
3	0	4501,8129	2,90632772
3	0	4516,8129	2,90630865
3	0	4531,8129	2,90657544
3	0	4546,8129	2,90632772
3	0	4561,8129	2,90611792
3	0	4576,8129	2,9055841
3	0	4591,8129	2,9067471
3	0	4606,8129	2,90615606
3	0	4621,8129	2,90533638
3	0	4636,8129	2,90564132
3	0	4651,8129	2,90505028
3	0	4666,8129	2,90472627
3	0	4681,8129	2,90487885
3	0	4696,8129	2,90487885
3	0	4711,8129	2,90562224
3	0	4726,8129	2,90543175
3	0	4741,8129	2,90474534
3	0	4756,8129	2,90428782
3	0	4771,8129	2,90516472
3	0	4786,8129	2,9058702
3	0	4801,8129	2,90552688
3	0	4816,8129	2,9053936
3	0	4831,8129	2,9055841
3	0	4846,8129	2,90667081
3	0	4861,8129	2,9049933
3	0	4876,8129	2,90571761
3	0	4891,8129	2,90642285
3	0	4906,8129	2,90688038
3	0	4921,8129	2,90750957
3	0	4936,8129	2,90667081
3	0	4951,8129	2,90573668
3	0	4966,8129	2,90501213
3	0	4981,8129	2,90482163
3	0	4996,8129	2,90455461
3	0	5011,8129	2,90405917
3	0	5026,8129	2,90407825
3	0	5041,8129	2,90472627
3	0	5056,8129	2,90516472
3	0	5071,8129	2,90516472
3	0	5086,8129	2,90518379
3	0	5101,8129	2,90447855
3	0	5116,8129	2,90445948
3	0	5131,8129	2,9055841
3	0	5146,8129	2,90640378
3	0	5161,8129	2,90703297
3	0	5176,8129	2,9074142
3	0	5191,8129	2,90787172
3	0	5206,8129	2,90787172
3	0	5221,8129	2,90796709
3	0	5236,8129	2,90756679
3	0	5251,8129	2,90813875
3	0	5266,8129	2,9081769
3	0	5281,8129	2,90804338
3	0	5296,8129	2,90798616
3	0	5311,8129	2,90827203
3	0	5326,8129	2,90867257
3	0	5341,8129	2,90861535
3	0	5356,8129	2,90872955
3	0	5371,8129	2,9087677
3	0	5386,8129	2,90844369
3	0	5401,8129	2,90709019
3	0	5416,8129	2,90638494
3	0	5431,8129	2,90632772
3	0	5446,8129	2,90651822
3	0	5461,8129	2,90625143
3	0	5476,8129	2,90638494
3	0	5491,8129	2,90621328
3	0	5506,8129	2,90577483
3	0	5521,8129	2,90548873
3	0	5536,8129	2,90577483
3	0	5551,8129	2,90571761
3	0	5566,8129	2,90497422
3	0	5581,8129	2,90409708
3	0	5596,8129	2,9041543
3	0	5611,8129	2,89729142
3	0	5626,8129	2,89542317
3	0	5641,8129	2,89256358
3	0	5656,8129	2,8912673
3	0	5671,8129	2,89000916
3	0	5686,8129	2,88960886
3	0	5701,8129	2,88970423
3	0	5716,8129	2,8917439
3	0	5731,8129	2,89109588
3	0	5746,8129	2,88842678
3	0	5761,8129	2,88785505
3	0	5776,8129	2,88814092
3	0	5791,8129	2,88722587
3	0	5806,8129	2,88861752
3	0	5821,8129	2,88793135
3	0	5836,8129	2,88714957
3	0	5851,8129	2,88682556
3	0	5866,8129	2,88703513
3	0	5881,8129	2,88720679
3	0	5896,8129	2,88970423
3	0	5911,8129	2,8892467
3	0	5926,8129	2,88777876
3	0	5941,8129	2,88631082
3	0	5956,8129	2,8870542
3	0	5971,8129	2,88764524
3	0	5986,8129	2,88581514
3	0	6001,8129	2,88686371
3	0	6016,8129	2,88667297
3	0	6031,8129	2,88730216
3	0	6046,8129	2,88714957
3	0	6061,8129	2,88739753
3	0	6076,8129	2,88718772
3	0	6091,8129	2,88766432
3	0	6106,8129	2,88840795
3	0	6121,8129	2,88939905
3	0	6136,8129	2,88842678
3	0	6151,8129	2,88787413
3	0	6166,8129	2,88821721
3	0	6181,8129	2,88901782
3	0	6196,8129	2,88846493
3	0	6211,8129	2,88821721
3	0	6226,8129	2,88951349
3	0	6241,8129	2,89121008
3	0	6256,8129	2,88981843
3	0	6271,8129	2,8880837
3	0	6286,8129	2,88795042
3	0	6301,8129	2,88758802
3	0	6316,8129	2,88768339
3	0	6331,8129	2,88844585
3	0	6346,8129	2,88846493
3	0	6361,8129	2,88846493
3	0	6376,8129	2,88732123
3	0	6391,8129	2,88716865
3	0	6406,8129	2,88680649
3	0	6421,8129	2,88720679
3	0	6436,8129	2,88857937
3	0	6451,8129	2,88903689
3	0	6466,8129	2,89033318
3	0	6481,8129	2,89065742
3	0	6496,8129	2,88907504
3	0	6511,8129	2,8880837
3	0	6526,8129	2,88785505
3	0	6541,8129	2,88814092
3	0	6556,8129	2,88779783
3	0	6571,8129	2,88766432
3	0	6586,8129	2,88806462
3	0	6601,8129	2,88726401
3	0	6616,8129	2,88957071
3	0	6631,8129	2,88695908
3	0	6646,8129	2,88745475
3	0	6661,8129	2,88703513
3	0	6676,8129	2,88743567
3	0	6691,8129	2,88680649
3	0	6706,8129	2,88703513
3	0	6721,8129	2,8876071
3	0	6736,8129	2,88766432
3	0	6751,8129	2,88869381
3	0	6766,8129	2,88922763
3	0	6781,8129	2,89004731
3	0	6796,8129	2,88999009
3	0	6811,8129	2,89042854
3	0	6826,8129	2,89010453
3	0	6841,8129	2,8916676
3	0	6856,8129	2,88937998
3	0	6871,8129	2,8917439
3	0	6886,8129	2,8916297
3	0	6901,8129	2,89128637
3	0	6916,8129	2,89164853
3	0	6931,8129	2,89130545
3	0	6946,8129	2,8917439
3	0	6961,8129	2,89094329
3	0	6976,8129	2,89182019
3	0	6991,8129	2,8916676
3	0	7006,8129	2,89161062
3	0	7021,8129	2,89134359
3	0	7036,8129	2,89134359
3	0	7051,8129	2,8912673
3	0	7066,8129	2,89271617
3	0	7081,8129	2,89288783
3	0	7096,8129	2,89300227
3	0	7111,8129	2,8921442
3	0	7126,8129	2,89157248
3	0	7141,8129	2,89336443
3	0	7156,8129	2,89344072
3	0	7171,8129	2,8945272
3	0	7186,8129	2,89273524
3	0	7201,8129	2,89075255
3	0	7216,8129	2,89018083