File: Experimentelles/Rohdaten/Batteriemessungen/AlteZelle/Studenten_Batterietests/ASS Batterie 02/ECLab-Export/LiNiMnO-LATP-LTO_09_OCV_C01.mpt
EC-Lab ASCII FILE
Nb header lines : 46

Open Circuit Voltage

Run on channel : 1 (SN 6985)
Grouped channel(s) : 1
User :
CE vs. WE compliance from -10 V to 10 V
Electrode connection : standard
Ewe ctrl range : min = -2,50 V, max = 2,50 V
Acquisition started on : 01.29.2015 17:18:52
Saved on :
	File : LiNiMnO-LATP-LTO_09_OCV_C01.mpr
	Directory : C:\Hupfer\Studenten Batterietests\ASS Batterie 02\
	Host : 192.168.0.2
Device : VMP3 (SN 0324)
Address : 192.168.0.1
EC-Lab for windows v10.33 (software)
Internet server v10.33 (firmware)
Command interpretor v10.32 (firmware)
Electrode material :
Initial state :
Electrolyte :
Comments :
Mass of active material : 0,001 mg
 at x = 0,000
Molecular weight of active material (at x = 0) : 0,001 g/mol
Atomic weight of intercalated ion : 0,001 g/mol
Acquisition started at : xo = 0,000
Number of e- transfered per intercalated ion : 1
for DX = 1, DQ = 26,801 mA.h
Battery capacity : 0,000 A.h
Electrode surface area : 0,001 cm²
Characteristic mass : 0,001 g
tR (h:m:s)          1:00:0,0000
dER/dt (mV/h)       0,0
dER (mV)            0,00
dtR (s)             60,0000
E range min (V)     -2,500
E range max (V)     2,500

Number of loops : 1
Loop 0 from point number 0 to 60

mode	error	time/s	Ewe/V
3	0	6237,2173	0,0157818012
3	0	6297,2173	-0,0837762058
3	0	6357,2173	-0,0694932193
3	0	6417,2173	-0,0537781119
3	0	6477,2173	-0,0455291122
3	0	6537,2173	-0,0302722808
3	0	6597,2173	-0,0214695297
3	0	6657,2173	-0,0178414974
3	0	6717,2173	-0,0133160045
3	0	6777,2173	-0,00688102096
3	0	6837,2173	-0,000465132529
3	0	6897,2173	0,00751653872
3	0	6957,2173	0,00675274245
3	0	7017,2173	0,017274037
3	0	7077,2173	0,0201191772
3	0	7137,2173	0,0210930184
3	0	7197,2173	0,0286355056
3	0	7257,2173	0,0317670703
3	0	7317,2173	0,0326454379
3	0	7377,2173	0,031003274
3	0	7437,2173	0,039405033
3	0	7497,2173	0,0421546996
3	0	7557,2173	0,0397105515
3	0	7617,2173	0,0421928912
3	0	7677,2173	0,0419064686
3	0	7737,2173	0,0495253354
3	0	7797,2173	0,0482841656
3	0	7857,2173	0,053936258
3	0	7917,2173	0,0540317334
3	0	7977,2173	0,0517212488
3	0	8037,2173	0,0519121997
3	0	8097,2173	0,0557502732
3	0	8157,2172	0,058041662
3	0	8217,2172	0,0638465136
3	0	8277,2172	0,0650876835
3	0	8337,2172	0,0600275323
3	0	8397,2172	0,066557996
3	0	8457,2172	0,0664434209
3	0	8517,2172	0,0656796247
3	0	8577,2172	0,0639038011
3	0	8637,2172	0,0701478347
3	0	8697,2172	0,0667680353
3	0	8757,2172	0,0726110786
3	0	8817,2172	0,0749215633
3	0	8877,2172	0,0750361308
3	0	8937,2172	0,0763536841
3	0	8997,2172	0,0711025819
3	0	9057,2172	0,0719045699
3	0	9117,2172	0,0787978321
3	0	9177,2172	0,0729738846
3	0	9237,2172	0,0801153779
3	0	9297,2172	0,0762200132
3	0	9357,2172	0,07931339
3	0	9417,2172	0,0806309432
3	0	9477,2172	0,0766019151
3	0	9537,2172	0,0807264149
3	0	9597,2172	0,0788169205
3	0	9657,2172	0,0809173658
3	0	9717,2172	0,0837243125
3	0	9777,2172	0,0797716677
3	0	9837,2172	0,0876960531