File: Experimentelles/Rohdaten/Batteriemessungen/AlteZelle/Studenten_Batterietests/ASS Batterie 02/ECLab-Export/LiNiMnO-LATP-LTO_06_GCPL_C01.mpt
EC-Lab ASCII FILE
Nb header lines : 81

Galvanostatic Cycling with Potential Limitation

Run on channel : 1 (SN 6985)
Grouped channel(s) : 1
User :
CE vs. WE compliance from -10 V to 10 V
Electrode connection : standard
Ewe ctrl range : min = -2,50 V, max = 2,50 V
Acquisition started on : 01.29.2015 17:18:52
Saved on :
	File : LiNiMnO-LATP-LTO_06_GCPL_C01.mpr
	Directory : C:\Hupfer\Studenten Batterietests\ASS Batterie 02\
	Host : 192.168.0.2
Device : VMP3 (SN 0324)
Address : 192.168.0.1
EC-Lab for windows v10.33 (software)
Internet server v10.33 (firmware)
Command interpretor v10.32 (firmware)
Electrode material :
Initial state :
Electrolyte :
Comments :
Mass of active material : 0,001 mg
 at x = 0,000
Molecular weight of active material (at x = 0) : 0,001 g/mol
Atomic weight of intercalated ion : 0,001 g/mol
Acquisition started at : xo = 0,000
Number of e- transfered per intercalated ion : 1
for DX = 1, DQ = 26,801 mA.h
Battery capacity : 0,000 A.h
Electrode surface area : 0,001 cm²
Characteristic mass : 0,001 g
Ns                  0                   1                   2
Set I/C             I                   I                   I
Is                  0,000               -300,000            300,000
unit Is             mA                  µA                  µA
vs.                 <None>              <None>              <None>
N                   1                   1                   1
I sign              > 0                 > 0                 > 0
t1 (h:m:s)          0:00:0,0000         10:00:0,0000        10:00:0,0000
I Range             1 mA                1 mA                1 mA
Bandwidth           5                   5                   5
dE1 (mV)            0,00                0,00                0,00
dt1 (s)             0,0000              10,0000             10,0000
EM (V)              0,000               0,000               2,000
tM (h:m:s)          0:00:0,0000         0:00:0,0000         0:00:0,0000
Im                  0,000               0,000               0,000
unit Im             mA                  mA                  mA
E range min (V)     -2,500              -2,500              -2,500
E range max (V)     2,500               2,500               2,500
dq                  0,000               1,000               1,000
unit dq             mA.h                mA.h                mA.h
dtq (s)             0,0000              120,0000            120,0000
dQM                 0,000               0,000               0,000
unit dQM            mA.h                mA.h                mA.h
dxM                 0,000               0,000               0,000
tR (h:m:s)          0:00:0,0000         0:00:0,0000         0:00:0,0000
dER/dt (mV/h)       0,0                 0,1                 0,1
dER (mV)            0,00                5,00                5,00
dtR (s)             1,0000              120,0000            120,0000
EL (V)              pass                4,200               4,200
goto Ns'            0                   0                   0
nc cycles           0                   0                   0

Number of loops : 11
Loop 0 from point number 0 to 1
Loop 1 from point number 2 to 5
Loop 2 from point number 6 to 9
Loop 3 from point number 10 to 13
Loop 4 from point number 14 to 17
Loop 5 from point number 18 to 21
Loop 6 from point number 22 to 25
Loop 7 from point number 26 to 29
Loop 8 from point number 30 to 33
Loop 9 from point number 34 to 37
Loop 10 from point number 38 to 41

mode	ox/red	error	control changes	Ns changes	counter inc.	Ns	time/s	control/V/mA	Ewe/V	dq/mA.h	<I>/mA	P/W	(Q-Qo)/mA.h	x	Capacity/mA.h
1	1	0	0	1	0	2	6214,6971	0,300000012	-0,0704288706	0	0	0	0	0	0
1	1	0	0	0	0	2	6214,7473	0,300000012	10,5137119	5,6333536324220608E-009	0,0004039855243922873	4,24738755E-006	5,6333536324220608E-009	-2,1018799815018045E-010	5,6333536324220608E-009
1	0	0	1	1	0	1	6214,7979	-0,300000012	0,131264403	0	0	0	5,6333536324220608E-009	-2,1018799815018045E-010	0
1	0	0	1	0	0	1	6214,8477	-0,300000012	-4,92206144	-1,0931521464954128E-009	-7,9023047691798835E-005	3,88956295E-007	4,5402014859266477E-009	-1,6940102180574403E-010	1,0931521464954128E-009
1	1	0	0	1	0	2	6214,8483	0,300000012	10,5137119	2,7847585992680656E-009	0,01670855201770192	0,000175668902	7,3249600851947136E-009	-2,7330410929219315E-010	2,7847585992680656E-009
1	1	0	0	0	0	2	6214,8489	0,300000012	10,5137119	3,6821612674329018E-009	0,022092967626887731	0,000232279097	1,1007121352627616E-008	-4,1069049689859213E-010	6,4669198667009677E-009
1	0	0	1	1	0	1	6214,8995	-0,300000012	0,18226923	0	0	0	1,1007121352627616E-008	-4,1069049689859213E-010	0
1	0	0	1	0	0	1	6214,9493	-0,300000012	-4,95550346	-1,2217563602866397E-009	-8,831973795799049E-005	4,37668774E-007	9,7853649923409766E-009	-3,6510512442740058E-010	1,2217563602866397E-009
1	1	0	0	1	0	2	6214,9499	0,300000012	10,5137119	2,7967711082763142E-009	0,016780627073572182	0,000176426678	1,258213610061729E-008	-4,6945641477593766E-010	2,7967711082763142E-009
1	1	0	0	0	0	2	6214,9505	0,300000012	10,5137119	3,6931140348315238E-009	0,022158684231345766	0,000232970022	1,6275250135448816E-008	-6,0725146486013171E-010	6,4898851431078374E-009
1	0	0	1	1	0	1	6215,0011	-0,300000012	0,207290456	0	0	0	1,6275250135448816E-008	-6,0725146486013171E-010	0
1	0	0	1	0	0	1	6215,0509	-0,300000012	-4,98750162	-1,2281159247827925E-009	-8,8779465491555827E-005	4,42787723E-007	1,5047134210666022E-008	-5,6142880848706323E-010	1,2281159247827925E-009
1	1	0	0	1	0	2	6215,0515	0,300000012	10,5137119	2,7911179802483981E-009	0,016746708304547824	0,000176070069	1,7838252190914422E-008	-6,6556917302816717E-010	2,7911179802483981E-009
1	1	0	0	0	0	2	6215,0521	0,300000012	10,5137119	3,6920538793007533E-009	0,022152323298154723	0,000232903141	2,1530306070215178E-008	-8,0332466728411392E-010	6,483171859549152E-009
1	0	0	1	1	0	1	6215,1027	-0,300000012	0,221244603	0	0	0	2,1530306070215178E-008	-8,0332466728411392E-010	0
1	0	0	1	0	0	1	6215,1525	-0,300000012	-5,02110386	-1,238008582731709E-009	-8,949459739993079E-005	4,49361664E-007	2,0292297487483469E-008	-7,5713290254215142E-010	1,238008582731709E-009
1	1	0	0	1	0	2	6215,1531	0,300000012	10,5137119	2,782285420431031E-009	0,016693712944304845	0,000175512891	2,3074582907914499E-008	-8,609437124009664E-010	2,782285420431031E-009
1	1	0	0	0	0	2	6215,1537	0,300000012	10,5137119	3,6899340856406419E-009	0,022139604536181229	0,000232769424	2,6764516993555142E-008	-9,9862011430536141E-010	6,4722195060716736E-009
1	0	0	1	1	0	1	6215,2043	-0,300000012	0,232552275	0	0	0	2,6764516993555142E-008	-9,9862011430536141E-010	0
1	0	0	1	0	0	1	6215,2541	-0,300000012	-5,05382395	-1,2422482484705851E-009	-8,980107929043575E-005	4,53838851E-007	2,5522268745084557E-008	-9,5227016193439014E-010	1,2422482484705851E-009
1	1	0	0	1	0	2	6215,2547	0,300000012	10,5137119	2,7819319317738218E-009	0,016691591607483626	0,000175490582	2,8304200676858378E-008	-1,0560677826561342E-009	2,7819319317738218E-009
1	1	0	0	0	0	2	6215,2553	0,300000012	10,5137119	3,6888743440310157E-009	0,022133246086517053	0,000232702572	3,1993075020889395E-008	-1,1937046441762365E-009	6,4708062758048384E-009
1	0	0	1	1	0	1	6215,3059	-0,300000012	0,238005623	0	0	0	3,1993075020889395E-008	-1,1937046441762365E-009	0
1	0	0	1	0	0	1	6215,3557	-0,300000012	-5,08542156	-1,2503743758619141E-009	-9,0388510193309926E-005	4,59663681E-007	3,0742700645027482E-008	-1,1470514950666003E-009	1,2503743758619141E-009
1	1	0	0	1	0	2	6215,3563	0,300000012	10,5137119	2,7759256255295542E-009	0,016655553769981658	0,000175111694	3,3518626270557037E-008	-1,2506250124268061E-009	2,7759256255295542E-009
1	1	0	0	0	0	2	6215,3569	0,300000012	10,5137119	3,6789815252025926E-009	0,022073889173486624	0,000232078513	3,7197607795759629E-008	-1,3878927595753834E-009	6,4549071507321472E-009
1	0	0	1	1	0	1	6215,4075	-0,300000012	0,243619353	0	0	0	3,7197607795759629E-008	-1,3878927595753834E-009	0
1	0	0	1	0	0	1	6215,4573	-0,300000012	-5,1170187	-1,2585004216008302E-009	-9,0975935193599936E-005	4,65525574E-007	3,5939107374158797E-008	-1,3409364167736432E-009	1,2585004216008302E-009
1	1	0	0	1	0	2	6215,4579	0,300000012	10,5137119	2,7681530142823853E-009	0,016608918102451597	0,000174621382	3,8707260388441184E-008	-1,4442199275578304E-009	2,7681530142823853E-009
1	1	0	0	0	0	2	6215,4585	0,300000012	10,5137119	3,6906405455536314E-009	0,022143843832722336	0,000232813996	4,2397900933994816E-008	-1,5819226884314246E-009	6,4587935598360166E-009
1	0	0	1	1	0	1	6215,5091	-0,300000012	0,249313295	0	0	0	4,2397900933994816E-008	-1,5819226884314246E-009	0
1	0	0	1	0	0	1	6215,5589	-0,300000012	-5,14837551	-1,2708662414095467E-009	-9,1869849889395213E-005	4,72980474E-007	4,1127034692585267E-008	-1,5345049602666E-009	1,2708662414095467E-009
1	1	0	0	1	0	2	6215,5595	0,300000012	10,5137119	2,7625001966953277E-009	0,016575001196895027	0,000174264787	4,3889534889280595E-008	-1,6375775568263194E-009	2,7625001966953277E-009
1	1	0	0	0	0	2	6215,5601	0,300000012	10,5137119	3,6853410096632109E-009	0,022112046616576547	0,000232479695	4,7574875898943808E-008	-1,7750825848905402E-009	6,4478412063585395E-009
1	0	0	1	1	0	1	6215,6107	-0,300000012	0,25404489	0	0	0	4,7574875898943808E-008	-1,7750825848905402E-009	0
1	0	0	1	0	0	1	6215,6605	-0,300000012	-5,18045378	-1,2758125683629059E-009	-9,2227415697583629E-005	4,77779849E-007	4,6299063330580902E-008	-1,7274803026166787E-009	1,2758125683629059E-009
1	1	0	0	1	0	2	6215,6611	0,300000012	10,5137119	2,7596736326813696E-009	0,016558041812794173	0,000174086483	4,9058736963262278E-008	-1,8304474362726819E-009	2,7596736326813696E-009
1	1	0	0	0	0	2	6215,6617	0,300000012	10,5137119	3,690994034210841E-009	0,022145964764719171	0,00023283629	5,274973099747312E-008	-1,9681633862833472E-009	6,4506676668922112E-009
1	0	0	1	1	0	1	6215,7123	-0,300000012	0,259819001	0	0	0	5,274973099747312E-008	-1,9681633862833472E-009	0
1	0	0	1	0	0	1	6215,7621	-0,300000012	-5,21293354	-1,2917113611668656E-009	-9,3376726034682816E-005	4,8676668E-007	5,1458019636306253E-008	-1,9199678986738154E-009	1,2917113611668656E-009
1	1	0	0	1	0	2	6215,7627	0,300000012	10,5137119	2,7607335812515686E-009	0,016564401905961398	0,000174153349	5,4218753217557818E-008	-2,0229745804360886E-009	2,7607335812515686E-009
1	1	0	0	0	0	2	6215,7633	0,300000012	10,5137119	3,6924072644776768E-009	0,022154443609218406	0,000232925435	5,7911160482035494E-008	-2,1607432599681178E-009	6,4531408457292454E-009