File: Experimentelles/Rohdaten/Batteriemessungen/AlteZelle/Studenten_Batterietests/LLTO_LP30_Li/ECLab-Export/LLTO_LP30_Li_02_OCV_C01.mpt
EC-Lab ASCII FILE
Nb header lines : 46

Open Circuit Voltage

Run on channel : 1 (SN 6985)
Grouped channel(s) : 1
User :
CE vs. WE compliance from -10 V to 10 V
Electrode connection : standard
Ewe ctrl range : min = 0,00 V, max = 5,00 V
Acquisition started on : 04.22.2015 16:16:38
Saved on :
	File : LLTO_LP30_Li_02_OCV_C01.mpr
	Directory : C:\Hupfer\Studenten Batterietests\LLTO_LP30_Li\
	Host : 192.168.0.2
Device : VMP3 (SN 0324)
Address : 192.168.0.1
EC-Lab for windows v10.33 (software)
Internet server v10.33 (firmware)
Command interpretor v10.32 (firmware)
Electrode material :
Initial state :
Electrolyte :
Comments :
Mass of active material : 0,001 mg
 at x = 0,000
Molecular weight of active material (at x = 0) : 0,001 g/mol
Atomic weight of intercalated ion : 0,001 g/mol
Acquisition started at : xo = 0,000
Number of e- transfered per intercalated ion : 1
for DX = 1, DQ = 26,801 mA.h
Battery capacity : 0,000 A.h
Electrode surface area : 0,001 cm²
Characteristic mass : 0,001 g
tR (h:m:s)          0:15:0,0000
dER/dt (mV/h)       1,0
dER (mV)            1,00
dtR (s)             0,5000
E range min (V)     0,000
E range max (V)     5,000

Number of loops : 1
Loop 0 from point number 0 to 1808

mode	error	time/s	Ewe/V
3	0	679,6796	3,79904604
3	0	683,1796	3,79480696
3	0	686,6796	3,79136968
3	0	690,1796	3,78799009
3	0	693,6796	3,78482032
3	0	697,1796	3,78165054
3	0	700,6796	3,77872896
3	0	704,1796	3,77607465
3	0	707,6796	3,77349687
3	0	711,1796	3,77078557
3	0	714,6796	3,7684176
3	0	718,1796	3,76589727
3	0	721,6796	3,76333857
3	0	725,1796	3,76100898
3	0	728,6796	3,75873661
3	0	732,1796	3,75648332
3	0	735,6796	3,75442123
3	0	739,1796	3,75220609
3	0	742,6796	3,7500484
3	0	746,1796	3,7481389
3	0	749,6796	3,74603844
3	0	753,1796	3,74403358
3	0	756,6796	3,74214315
3	0	760,1796	3,73994708
3	0	763,6796	3,73811412
3	0	767,1796	3,73631907
3	0	770,6796	3,73435235
3	0	774,1796	3,73242378
3	0	777,6796	3,73066711
3	0	781,1796	3,72875762
3	0	784,6796	3,7268672
3	0	788,1796	3,72501493
3	0	791,6796	3,72310543
3	0	795,1796	3,72123408
3	0	798,6796	3,71930552
3	0	802,1796	3,71754885
3	0	805,6796	3,71571565
3	0	809,1796	3,7141118
3	0	812,6796	3,71214509
3	0	816,1796	3,71040726
3	0	819,6796	3,70859337
3	0	823,1796	3,70695114
3	0	826,6796	3,70530891
3	0	830,1796	3,70322776
3	0	833,6796	3,70131826
3	0	837,1796	3,69954228
3	0	840,6796	3,69788122
3	0	844,1796	3,69621992
3	0	847,6796	3,69476867
3	0	851,1796	3,69303107
3	0	854,6796	3,69154167
3	0	858,1796	3,69014764
3	0	861,6796	3,68841004
3	0	865,1796	3,68695879
3	0	868,6796	3,68533587
3	0	872,1796	3,68371272
3	0	875,6796	3,68218517
3	0	879,1796	3,68048573
3	0	882,6796	3,67893887
3	0	886,1796	3,67750692
3	0	889,6796	3,67605567
3	0	893,1796	3,67464256
3	0	896,6796	3,67317224
3	0	900,1796	3,67162561
3	0	903,6796	3,67015529
3	0	907,1796	3,66872311
3	0	910,6796	3,66725278
3	0	914,1796	3,66572523
3	0	917,6796	3,66415954
3	0	921,1796	3,66295648
3	0	924,6796	3,66112351
3	0	928,1796	3,65972948
3	0	931,6796	3,6582973
3	0	935,1796	3,6568079
3	0	938,6796	3,65528035
3	0	942,1796	3,6539247
3	0	945,6796	3,65245438
3	0	949,1796	3,65092683
3	0	952,6796	3,64966655
3	0	956,1796	3,64800525
3	0	959,6796	3,64668775
3	0	963,1796	3,64531279
3	0	966,6796	3,64391899
3	0	970,1796	3,64263964
3	0	973,6796	3,64118838
3	0	977,1796	3,63956523
3	0	980,6796	3,63813305
3	0	984,1796	3,63651013
3	0	987,6796	3,6351161
3	0	991,1796	3,63391328
3	0	994,6796	3,63229012
3	0	998,1796	3,63068604
3	0	1001,6796	3,62927318
3	0	1005,1796	3,62789822
3	0	1008,6796	3,62633252
3	0	1012,1796	3,62522507
3	0	1015,6796	3,62398386
3	0	1019,1796	3,62234163
3	0	1022,6796	3,62110043
3	0	1026,1796	3,61968756
3	0	1029,6796	3,61825538
3	0	1033,1796	3,61684227
3	0	1036,6796	3,61563945
3	0	1040,1796	3,61464643
3	0	1043,6796	3,61321425
3	0	1047,1796	3,61189675
3	0	1050,6796	3,61054111
3	0	1054,1796	3,60918522
3	0	1057,6796	3,60773396
3	0	1061,1796	3,60666466
3	0	1064,6796	3,60592008
3	0	1068,1796	3,60435414
3	0	1071,6796	3,6028266
3	0	1075,1796	3,60173821
3	0	1078,6796	3,60049701
3	0	1082,1796	3,59940863
3	0	1085,6796	3,59799576
3	0	1089,1796	3,5967164
3	0	1092,6796	3,5953033
3	0	1096,1796	3,59392834
3	0	1099,6796	3,59270644
3	0	1103,1796	3,59131241
3	0	1106,6796	3,59026217
3	0	1110,1796	3,58913565
3	0	1113,6796	3,58783722
3	0	1117,1796	3,58642411
3	0	1120,6796	3,58520198
3	0	1124,1796	3,5843811
3	0	1127,6796	3,5825479
3	0	1131,1796	3,58073378
3	0	1134,6796	3,5792253
3	0	1138,1796	3,57819414
3	0	1141,6796	3,57718229
3	0	1145,1796	3,57617021
3	0	1148,6796	3,57513905
3	0	1152,1796	3,57370687
3	0	1155,6796	3,57200742
3	0	1159,1796	3,57103372
3	0	1162,6796	3,56992626
3	0	1166,1796	3,56900954
3	0	1169,6796	3,56803584
3	0	1173,1796	3,56669903
3	0	1176,6796	3,56561065
3	0	1180,1796	3,56444597
3	0	1183,6796	3,56310916
3	0	1187,1796	3,56215453
3	0	1190,6796	3,5608561
3	0	1194,1796	3,55982494
3	0	1197,6796	3,55867934
3	0	1201,1796	3,55780077
3	0	1204,6796	3,55669332
3	0	1208,1796	3,55558586
3	0	1211,6796	3,55432558
3	0	1215,1796	3,55327535
3	0	1218,6796	3,55237794
3	0	1222,1796	3,55128956
3	0	1225,6796	3,5500865
3	0	1229,1796	3,54939914
3	0	1232,6796	3,54836798
3	0	1236,1796	3,54712677
3	0	1239,6796	3,546134
3	0	1243,1796	3,54485464
3	0	1246,6796	3,54359436
3	0	1250,1796	3,54246759
3	0	1253,6796	3,54143643
3	0	1257,1796	3,53983259
3	0	1260,6796	3,53872514
3	0	1264,1274	3,53649092
3	0	1267,6168	3,53465796
3	0	1271,1168	3,5331111
3	0	1274,6168	3,53206086
3	0	1278,1168	3,53038049
3	0	1281,6168	3,52917767
3	0	1285,1168	3,52791739
3	0	1288,6168	3,52719164
3	0	1292,1168	3,52679086
3	0	1295,6168	3,52512956
3	0	1299,1168	3,52425122
3	0	1302,6168	3,52306724
3	0	1306,1168	3,52213168
3	0	1309,6168	3,52098584
3	0	1313,1168	3,51978302
3	0	1316,6168	3,51840806
3	0	1320,1168	3,51749158
3	0	1323,6168	3,51670861
3	0	1327,1168	3,51596403
3	0	1330,6168	3,51460814
3	0	1334,1168	3,51332879
3	0	1337,6168	3,51153398
3	0	1341,1168	3,51036906
3	0	1344,6168	3,50901341
3	0	1348,1168	3,50758123
3	0	1351,6168	3,50666475
3	0	1355,1168	3,50515628
3	0	1358,4846	3,50357127
3	0	1361,9846	3,50275016
3	0	1365,4846	3,50168085
3	0	1368,7184	3,49862576
3	0	1372,2184	3,49803376
3	0	1375,7184	3,49755645
3	0	1379,2184	3,49644899
3	0	1382,7184	3,49579978
3	0	1386,2184	3,49467301
3	0	1389,7184	3,49356556
3	0	1393,2184	3,49205709
3	0	1396,7184	3,49125504
3	0	1400,2184	3,49014759
3	0	1403,7184	3,48898292
3	0	1407,2184	3,48737884
3	0	1410,7184	3,48663425
3	0	1414,2184	3,48579407
3	0	1417,7184	3,48531651
3	0	1421,2184	3,48403716
3	0	1424,7184	3,48310161
3	0	1428,2184	3,48218513
3	0	1431,7184	3,48121119
3	0	1435,1160	3,4775641
3	0	1438,6160	3,47659016
3	0	1441,3198	3,47181654
3	0	1443,2212	3,46755838
3	0	1446,4670	3,46547699
3	0	1449,9670	3,46499968
3	0	1453,4670	3,46312833
3	0	1456,9140	3,46158171
3	0	1460,0832	3,46415949
3	0	1463,4264	3,46874213
3	0	1466,9264	3,46883774
3	0	1470,4264	3,4676919
3	0	1473,9264	3,46708107
3	0	1477,4264	3,46608806
3	0	1480,9264	3,46528602
3	0	1484,4264	3,46482778
3	0	1487,9264	3,4635675
3	0	1491,4264	3,46267009
3	0	1494,9264	3,46255541
3	0	1498,4264	3,46320462
3	0	1501,9264	3,46196365
3	0	1505,4264	3,46087503
3	0	1508,9264	3,46014953
3	0	1512,4264	3,45929027
3	0	1515,9264	3,45783901
3	0	1519,4264	3,45713258
3	0	1522,9264	3,45600581
3	0	1526,4264	3,45575762
3	0	1529,9264	3,4541347
3	0	1533,4264	3,45331359
3	0	1536,9264	3,45214868
3	0	1540,4264	3,4506402
3	0	1543,9264	3,44974279
3	0	1547,3640	3,44794798
3	0	1550,8640	3,44724131
3	0	1554,3640	3,4463439
3	0	1557,8640	3,44613385
3	0	1561,3640	3,44567561
3	0	1564,8640	3,44569468
3	0	1568,3640	3,44548464
3	0	1571,8640	3,4450264
3	0	1575,3640	3,44422436
3	0	1578,8640	3,44346046
3	0	1579,6796	3,44321227