File: Experimentelles/Rohdaten/Batteriemessungen/AlteZelle/Studenten_Batterietests/LLTO_LP30_Li/ECLab-Export/LLTO_LP30_Li_01_GCPL_C01.mpt
EC-Lab ASCII FILE
Nb header lines : 71

Galvanostatic Cycling with Potential Limitation

Run on channel : 1 (SN 6985)
Grouped channel(s) : 1
User :
CE vs. WE compliance from -10 V to 10 V
Electrode connection : standard
Ewe ctrl range : min = 0,00 V, max = 5,00 V
Acquisition started on : 04.22.2015 16:16:38
Saved on :
	File : LLTO_LP30_Li_01_GCPL_C01.mpr
	Directory : C:\Hupfer\Studenten Batterietests\LLTO_LP30_Li\
	Host : 192.168.0.2
Device : VMP3 (SN 0324)
Address : 192.168.0.1
EC-Lab for windows v10.33 (software)
Internet server v10.33 (firmware)
Command interpretor v10.32 (firmware)
Electrode material :
Initial state :
Electrolyte :
Comments :
Mass of active material : 0,001 mg
 at x = 0,000
Molecular weight of active material (at x = 0) : 0,001 g/mol
Atomic weight of intercalated ion : 0,001 g/mol
Acquisition started at : xo = 0,000
Number of e- transfered per intercalated ion : 1
for DX = 1, DQ = 26,801 mA.h
Battery capacity : 0,000 A.h
Electrode surface area : 0,001 cm²
Characteristic mass : 0,001 g
Ns                  0                   1
Set I/C             I                   I
Is                  0,000               5,000
unit Is             mA                  µA
vs.                 <None>              <None>
N                   1                   1
I sign              > 0                 > 0
t1 (h:m:s)          0:00:0,0000         5:00:0,0000
I Range             100 µA              100 µA
Bandwidth           5                   5
dE1 (mV)            0,00                10,00
dt1 (s)             0,0000              10,0000
EM (V)              0,000               3,800
tM (h:m:s)          0:00:0,0000         0:00:0,0000
Im                  0,000               0,000
unit Im             mA                  mA
E range min (V)     0,000               0,000
E range max (V)     5,000               5,000
dq                  0,000               1,000
unit dq             mA.h                mA.h
dtq (s)             0,0000              120,0000
dQM                 0,000               0,000
unit dQM            mA.h                mA.h
dxM                 0,000               0,000
tR (h:m:s)          0:00:0,0000         0:00:0,0000
dER/dt (mV/h)       0,0                 0,1
dER (mV)            0,00                5,00
dtR (s)             1,0000              1,0000
EL (V)              pass                3,500
goto Ns'            0                   0
nc cycles           0                   0

Number of loops : 1
Loop 0 from point number 0 to 86

mode	ox/red	error	control changes	Ns changes	counter inc.	Ns	time/s	control/V/mA	Ewe/V	dq/mA.h	<I>/mA	P/W	(Q-Qo)/mA.h	x	Capacity/mA.h
1	1	0	1	1	0	1	0,0004	0,00500000035	2,9948566	0	0	0	0	0	0
1	1	0	1	0	0	1	9,8350	0,00500000035	3,01486802	7,244137130005079E-006	0,005014207715213721	1,51171744E-005	1,3629209250734221E-005	-5,085241218116233E-007	1,3629209250734221E-005
1	1	0	1	0	0	1	20,2208	0,00500000035	3,03487945	7,2494836400987379E-006	0,0050138595565300032	1,52164594E-005	2,8093992785322928E-005	-1,0482246435954307E-006	2,8093992785322928E-005
1	1	0	1	0	0	1	30,8466	0,00500000035	3,05489087	7,3869807314282906E-006	0,0050139770174103187	1,53171532E-005	4,2893174605242221E-005	-1,6004020150081984E-006	4,2893174605242221E-005
1	1	0	1	0	0	1	41,4988	0,00500000035	3,07490253	7,430695250475159E-006	0,0050137765823528	1,54168738E-005	5,7728742713993357E-005	-2,1539370077791677E-006	5,7728742713993357E-005
1	1	0	1	0	0	1	52,5472	0,00500000035	3,09499025	7,5926424920196749E-006	0,005013851651216793	1,55178222E-005	7,3115995365070746E-005	-2,7280560925720858E-006	7,3115995365070746E-005
1	1	0	1	0	0	1	63,6548	0,00500000035	3,11500168	7,7503128952036301E-006	0,0050140400258014643	1,56187434E-005	8,8586629200188595E-005	-3,3052862414487475E-006	8,8586629200188595E-005
1	1	0	1	0	0	1	75,0284	0,00500000035	3,1350131	7,9869624066373542E-006	0,0050139618090639283	1,57188351E-005	0,00010442750629079523	-3,896330663985047E-006	0,00010442750629079523
1	1	0	1	0	0	1	86,7752	0,00500000035	3,15510106	8,1196298615800013E-006	0,0050140087550373594	1,58197035E-005	0,00012078825624248835	-4,5067722419449798E-006	0,00012078825624248835
1	1	0	1	0	0	1	98,6156	0,00500000035	3,17513156	8,0299155400652019E-006	0,0050141706574801523	1,5920652E-005	0,00013727961564162845	-5,1220870339954278E-006	0,00013727961564162845
1	1	0	1	0	0	1	110,2262	0,00500000035	3,19520044	8,1514257258580378E-006	0,0050142050021203878	1,60213895E-005	0,00015345127373572125	-5,7254733405115859E-006	0,00015345127373572125
1	1	0	1	0	0	1	122,4914	0,00500000035	3,21523094	8,7325265610124915E-006	0,005014050912917929	1,6121332E-005	0,00017053424057825466	-6,3628618016997069E-006	0,00017053424057825466
1	1	0	1	0	0	1	134,8082	0,00500000035	3,23531866	8,774025737825367E-006	0,0050142066631922502	1,6222557E-005	0,0001876891517309368	-7,0029346018296307E-006	0,0001876891517309368
1	1	0	1	0	0	1	147,4452	0,00500000035	3,25540662	8,9307004230407386E-006	0,0050142740470908589	1,63235018E-005	0,0002052904473107049	-7,6596626051043763E-006	0,0002052904473107049
1	1	0	1	0	0	1	160,1010	0,00500000035	3,27541804	8,8244610575234726E-006	0,0050143733007565766	1,64241683E-005	0,00022291852482747696	-8,3173898784574374E-006	0,00022291852482747696
1	1	0	1	0	0	1	172,9748	0,00500000035	3,29548669	9,0001922556095654E-006	0,0050143451991309869	1,65247075E-005	0,00024085020830293904	-8,986445098331776E-006	0,00024085020830293904
1	1	0	1	0	0	1	186,6342	0,00500000035	3,31555557	9,6358857980877581E-006	0,0050144828918787149	1,6625796E-005	0,00025987631332199597	-9,6963346574630541E-006	0,00025987631332199597
1	1	0	1	0	0	1	200,0158	0,00500000035	3,33562422	9,3005984191420595E-006	0,0050144005203890554	1,67261551E-005	0,00027851544500311002	-1,0391785721064494E-005	0,00027851544500311002
1	1	0	1	0	0	1	213,8626	0,00500000035	3,35565495	9,8506205583301683E-006	0,005014314485710247	1,68263086E-005	0,00029780210547998227	-1,1111396954647402E-005	0,00029780210547998227
1	1	0	1	0	0	1	228,1660	0,00500000035	3,37570453	1,005852409860947E-005	0,0050143583889208467	1,69269915E-005	0,00031772488153785875	-1,1854742515824069E-005	0,00031772488153785875
1	1	0	1	0	0	1	242,8264	0,00500000035	3,39577317	1,0295939916330907E-005	0,0050143922502153254	1,70277381E-005	0,00033814515969941594	-1,2616650549387758E-005	0,00033814515969941594
1	1	0	1	0	0	1	258,4892	0,00500000035	3,4157846	1,1240035796046464E-005	0,005014391034001335	1,7128079E-005	0,00035996176371897254	-1,3430657378093486E-005	0,00035996176371897254
1	1	0	1	0	0	1	274,4930	0,00500000035	3,43581533	1,1246629006617392E-005	0,0050142255277824435	1,72279524E-005	0,00038225269822880307	-1,4262362115135466E-005	0,00038225269822880307
1	1	0	1	0	0	1	291,5334	0,00500000035	3,45582676	1,2314081765659566E-005	0,0050139904852469069	1,73274821E-005	0,00040598659985924339	-1,5147905895537318E-005	0,00040598659985924339
1	1	0	1	0	0	1	309,1486	0,00500000035	3,47587633	1,2528846095523072E-005	0,0050139898487373914	1,74280085E-005	0,00043052076866711066	-1,6063308720299635E-005	0,00043052076866711066
1	1	0	1	0	0	1	326,8686	0,00500000035	3,49588776	1,2413705513191718E-005	0,0050139505190662963	1,75282075E-005	0,00045520049159583731	-1,6984142365010813E-005	0,00045520049159583731
1	1	0	1	0	0	1	344,5814	0,00500000035	3,51593757	1,2362859604931952E-005	0,0050138899693664954	1,76285248E-005	0,00047987027168729747	-1,7904605029095296E-005	0,00047987027168729747
1	1	0	1	0	0	1	362,7350	0,00500000035	3,53596807	1,2728886305639107E-005	0,0050140047113436826	1,77293605E-005	0,00050515409904304973	-1,8847978622205843E-005	0,00050515409904304973
1	1	0	1	0	0	1	381,1084	0,00500000035	3,55597949	1,2937828035559506E-005	0,0050139063991891341	1,78293485E-005	0,00053074389039554816	-1,9802768143407952E-005	0,00053074389039554816
1	1	0	1	0	0	1	400,6442	0,00500000035	3,57602906	1,3760073835780429E-005	0,0050141982205240211	1,79309191E-005	0,000557953320561344	-2,0817988566361738E-005	0,000557953320561344
1	1	0	1	0	0	1	420,6442	0,00500000035	3,5938828	1,3927791852374666E-005	0,0050140051935193043	1,80197476E-005	0,00058580883761110374	-2,185731535962927E-005	0,00058580883761110374
1	1	0	1	0	0	1	440,6442	0,00500000035	3,61257672	1,3928311348271867E-005	0,0050141922120470221	1,8114155E-005	0,0006136653539295255	-2,2896679436954109E-005	0,0006136653539295255
1	1	0	1	0	0	1	459,9562	0,00500000035	3,63224459	1,2969882537403869E-005	0,0050141299736020627	1,82125459E-005	0,00064056351964688422	-2,3900286164837206E-005	0,00064056351964688422
1	1	0	1	0	0	1	479,6686	0,00500000035	3,65187407	1,3928205432370304E-005	0,0050141540823214957	1,83110587E-005	0,00066801910950694106	-2,4924691136949098E-005	0,00066801910950694106
1	1	0	1	0	0	1	499,6686	0,00500000035	3,67079711	1,3927979488313818E-005	0,0050140727424591066	1,84056444E-005	0,00069587507431877043	-2,5964034636821469E-005	0,00069587507431877043
1	1	0	1	0	0	1	519,6686	0,00500000035	3,68886089	1,3928056532310115E-005	0,0050141004782984742	1,84963192E-005	0,00072373122240947558	-2,7003384975075114E-005	0,00072373122240947558
1	1	0	1	0	0	1	539,6686	0,00500000035	3,70591283	1,3927810656579418E-005	0,0050140119630331866	1,85814915E-005	0,00075158714971759142	-2,8042727075633514E-005	0,00075158714971759142
1	1	0	1	0	0	1	559,6686	0,00500000035	3,72210526	1,3928021581921106E-005	0,0050140878961581126	1,86629622E-005	0,0007794430589323863	-2,9082068501105773E-005	0,0007794430589323863
1	1	0	1	0	0	1	579,6686	0,00500000035	3,73747659	1,3928156905393634E-005	0,0050141366126094534	1,87402184E-005	0,00080729912863527411	-3,0121415914604563E-005	0,00080729912863527411
1	1	0	1	0	0	1	599,6686	0,00500000035	3,75151134	1,3928000872463197E-005	0,0050140804407530758	1,88103804E-005	0,00083515541601059942	-3,1160771449754662E-005	0,00083515541601059942
1	1	0	1	0	0	1	619,6686	0,00500000035	3,76440048	1,3928073571477499E-005	0,005014106612398887	1,88751055E-005	0,00086301161896127475	-3,2200123834907558E-005	0,00086301161896127475
1	1	0	1	0	0	1	639,6686	0,00500000035	3,77688861	1,392768155100445E-005	0,0050139654850250234	1,89371895E-005	0,00089086709046304832	-3,3239448928718483E-005	0,00089086709046304832
1	1	0	1	0	0	1	659,6686	0,00500000035	3,7884028	1,3927535199974147E-005	0,0050139127986527834	1,89947204E-005	0,00091872252711620582	-3,4278772722280691E-005	0,00091872252711620582
1	1	0	1	0	0	1	679,6294	0,00500000035	3,7999742	1,3873194807622997E-005	0,0050140051571281203	1,905309E-005	0,00094652337792128205	-3,5316059844459533E-005	0,00094652337792128205