File: Experimentelles/Ausgewaehlte_Daten/LATP/CV/LATP_Korrosion_08_CV_C02.txt
EC-Lab ASCII FILE
Nb header lines : 68

Cyclic Voltammetry

Run on channel : 2 (SN 6986)
Grouped channel(s) : 2
User :
CE vs. WE compliance from -10 V to 10 V
Electrode connection : standard
Ewe ctrl range : min = 0,00 V, max = 5,00 V
Acquisition started on : 09/02/2015 11:42:26
Saved on :
	File : LATP_Korrosion_08_CV_C02.mpr
	Directory : C:\Hupfer\Stabilitätstest Folie gegen Li\
	Host : 192.168.0.2
Device : VMP3 (SN 0324)
Address : 192.168.0.1
EC-Lab for windows v10.33 (software)
Internet server v10.33 (firmware)
Command interpretor v10.32 (firmware)
Electrode material : LATP
Initial state :
Electrolyte : LP-30
Comments :
Mass of active material : 0,001 mg
 at x = 0,000
Molecular weight of active material (at x = 0) : 0,001 g/mol
Atomic weight of intercalated ion : 0,001 g/mol
Acquisition started at : xo = 0,000
Number of e- transfered per intercalated ion : 1
for DX = 1, DQ = 26,801 mA.h
Battery capacity : 0,000 A.h
Reference electrode : Li+/Li (-3,020 V)
Electrode surface area : 0,001 cm²
Characteristic mass : 0,001 g
Ei (V)              0,000
vs.                 Eoc
dE/dt               10,000
dE/dt unit          mV/s
E1 (V)              4,000
vs.                 Ref
Step percent        50
N                   10
E range min (V)     0,000
E range max (V)     5,000
I Range             Auto
Bandwidth           5
E2 (V)              0,500
vs.                 Ref
nc cycles           0
Reverse Scan        1
Ef (V)              0,000
vs.                 Eoc

Modify on : 09/02/2015 11:45
Electrode material :
Electrolyte :

Modify on : 09/02/2015 17:09
dE/dt               1,000

Number of loops : 3
Loop 0 from point number 0 to 6916
Loop 1 from point number 6917 to 13817
Loop 2 from point number 13818 to 20712

mode	ox/red	error	control changes	counter inc.	time/s	control/V	Ewe/V	<I>/mA	cycle number	(Q-Qo)/C	P/W
2	1	0	0	0	75661,8434	1,51770663	1,51827168	-0,018127616494894029	1	0	2,75226466E-005
2	1	0	0	0	75884,4392	1,74030173	1,74093783	-0,014059004235429066	1	-0,00466369884	2,44758521E-005
2	1	0	1	0	76108,2852	1,96414804	1,96484196	-0,0062953291703947558	1	-0,00683523016	1,23693271E-005
2	1	0	0	0	76337,0323	2,19289446	2,19354272	0,0015781213985941734	1	-0,00756321615	3,46167667E-006
2	1	0	0	0	76563,9790	2,41984129	2,42056751	0,064912624449976602	1	-0,00296189403	0,000157125396
2	1	0	0	0	76787,1251	2,64298677	2,64368844	0,21091546781778979	1	0,031312082	0,000557594758
2	1	0	0	0	77010,1710	2,86603308	2,86663485	0,19861014801995046	1	0,0802697539	0,000569342752
2	1	0	0	0	77233,2170	3,0890789	3,08970666	0,12517338938296058	1	0,116864279	0,000386749045
2	1	0	1	0	77456,2630	3,31212473	3,31276536	0,072142918024122867	1	0,138788506	0,000238992565
2	1	0	0	0	77679,4090	3,53527045	3,53588605	0,03659737413359232	1	0,150514901	0,000129404143
2	1	0	1	0	77902,8552	3,75871611	3,75940728	0,020605258775190566	1	0,156992093	7,74635628E-005
2	1	0	1	0	78125,9010	3,98176217	3,98236799	0,019867856905747216	1	0,161343589	7,91211205E-005
2	0	0	1	0	78354,1480	3,79002237	3,78968787	0,00099344371919838502	1	0,162536323	3,76484172E-006
2	0	0	1	0	78600,7985	3,54337215	3,54314017	-0,0010419187650787787	1	0,162552297	3,69166423E-006
2	0	0	1	0	78843,2482	3,30092239	3,30068946	-0,0016640795662369485	1	0,162223607	5,49260994E-006
2	0	0	0	0	79082,2472	3,06192327	3,06165528	-0,0014691032674954448	1	0,161721513	4,49788786E-006
2	0	0	1	0	79313,3445	2,83082604	2,83063412	-0,0023837173936671584	1	0,161096171	6,7474316E-006
2	0	0	0	0	79537,5905	2,60657954	2,60640907	-0,017025667706006275	1	0,159711033	4,43758545E-005
2	0	0	0	0	79760,6364	2,38353395	2,38337493	-0,056557452285939002	1	0,152436599	0,000134797607
2	0	0	1	0	79983,8820	2,16028833	2,16012621	-0,20814506023233914	1	0,118730232	0,000449619605
2	0	0	1	0	80206,9277	1,93724227	1,93709946	-0,17418489674009229	1	0,0752164572	0,000337413483
2	0	0	1	0	80429,9734	1,71419644	1,7147727	-0,10976336474626237	1	0,0441430211	0,000188219215
2	0	0	0	0	80653,0191	1,49115062	1,49175453	-0,076497252133136179	1	0,0238937046	0,000114115122
2	0	0	1	0	80876,0649	1,26810479	1,26883852	-0,069791691713015693	1	0,00820134673	8,8554385E-005
2	0	0	0	0	81099,1105	1,04505908	1,04568696	-0,2028010586033111	1	-0,0175292827	0,000212066429
2	0	0	1	0	81322,1564	0,822013378	0,822499514	-0,34727224891165318	1	-0,0795053542	0,000285631249
2	0	0	0	0	81545,2021	0,598967552	0,599352181	-0,47218953674749376	1	-0,168799639	0,00028300783
2	1	0	0	1	81766,7482	0,622572422	0,623073757	-0,1127914816376716	1	-0,25547266	7,02774123E-005
2	1	0	1	1	81990,6942	0,846518338	0,847040057	0,22631550348881779	1	-0,240111709	0,000191698302
2	1	0	1	1	82213,7401	1,06956422	1,07022297	0,20561088359698944	1	-0,186950818	0,000220049493
2	1	0	0	1	82436,7859	1,29260981	1,29304981	0,06303637337031209	1	-0,158112377	8,15091698E-005
2	1	0	0	1	82659,9319	1,51575565	1,51635325	0,017321091449250122	1	-0,15034312	2,62648937E-005
2	1	0	0	0	82880,5710	1,73670125	1,73717713	0,0096820180239922944	2	0,00269579096	1,68193801E-005
2	1	0	0	0	83103,6170	1,95974684	1,96047592	0,013037777597945618	2	0,00499188667	2,55602499E-005
2	1	0	0	0	83326,6628	2,18279266	2,18346286	0,01565169155308585	2	0,00794512033	3,41748855E-005
2	1	0	0	0	83549,7088	2,40583849	2,40650368	0,051364608007986381	2	0,0137488311	0,000123609119
2	1	0	0	0	83772,8547	2,62898421	2,62968683	0,15174305519351766	2	0,0376979858	0,000399036711
2	1	0	0	0	83995,9008	2,85203028	2,85276723	0,18725225982615389	2	0,0772153437	0,000534187129
2	1	0	0	0	84218,9467	3,0750761	3,07564759	0,15765639417743315	2	0,116436288	0,000484895514
2	1	0	0	0	84441,9926	3,29812169	3,29880857	0,11864694471216986	2	0,147242114	0,000391393551
2	1	0	1	0	84665,0388	3,52116728	3,52187085	0,087522799973300595	2	0,170102626	0,000308243994
2	1	0	1	0	84888,0847	3,7442131	3,74507189	0,068717732965941632	2	0,187569857	0,000257352862
2	1	0	0	0	85111,3307	3,9674592	3,968117	0,057034092273334003	2	0,201578334	0,000226317949
2	0	0	1	0	85333,9763	3,80992723	3,80964661	0,01581568636044673	2	0,208376721	6,02521759E-005
2	0	0	0	0	85558,1224	3,58578062	3,58551216	0,0070070832282710938	2	0,210713267	2,51239817E-005
2	0	0	0	0	85810,1239	3,3337791	3,33347464	-0,00030920401936980307	2	0,211631596	1,03072375E-006
2	0	0	0	0	86061,8256	3,0820775	3,08182287	-0,0012468151158530998	2	0,211555496	3,84246323E-006
2	0	0	0	0	86306,7758	2,83712673	2,83698201	-0,0027090346348547267	2	0,210967973	7,68548216E-006
2	0	0	0	0	86549,2254	2,59467697	2,59448719	-0,010714249988218072	2	0,209677488	2,77979852E-005
2	0	0	0	0	86772,2712	2,37163162	2,37147427	-0,044338070631557094	2	0,20430328	0,000105146595
2	0	0	0	0	86995,4170	2,14848566	2,14832425	-0,14283856390734195	2	0,180968881	0,000306863541
2	0	0	1	0	87218,4628	1,92543995	1,92533958	-0,14966401141952202	2	0,147453696	0,000288154057
2	0	0	1	0	87441,5083	1,70239377	1,70287216	-0,11867145781876931	2	0,117233917	0,000202082316
2	0	0	0	0	87664,5541	1,47934806	1,47984481	-0,090405728796099981	2	0,0940233171	0,000133786452
2	0	0	1	0	87887,5998	1,25630248	1,25667989	-0,07731800166216329	2	0,0759527385	9,71639747E-005
2	0	0	0	0	88110,6456	1,03325653	1,03367925	-0,19596283108359386	2	0,0498037972	0,000202562718
2	0	0	1	0	88333,6913	0,810211003	0,810847938	-0,32508749153699059	2	-0,0165406521	0,000263596536
2	0	0	0	0	88556,7371	0,587165117	0,587611437	-0,43392137399131456	2	-0,0984683037	0,000254977174
2	1	0	1	1	88778,5832	0,634674788	0,635317147	-0,048405283154007494	2	-0,17070508	3,0752708E-005
2	1	0	0	1	89002,9293	0,859020948	0,859430373	0,21429986730450512	2	-0,144576088	0,00018417582
2	1	0	1	1	89225,9752	1,08206666	1,08266246	0,19398998475573626	2	-0,0975383371	0,000210025668
2	1	0	1	1	89449,0211	1,30511236	1,30563176	0,053702978768182752	2	-0,0711508468	7,01163153E-005
2	1	0	1	0	89669,6408	1,5259577	1,52638888	0,014587814849537584	3	0,000115709845	2,22666786E-005
2	1	0	1	0	89893,2868	1,74960351	1,75023508	0,0076506648538333939	3	0,00245725503	1,33904623E-005
2	1	0	1	0	90116,3327	1,97264957	1,97326708	0,010345335566616154	3	0,00453991536	2,04141106E-005
2	1	0	1	0	90339,3786	2,1956954	2,19624519	0,014549781344870781	3	0,00725253113	3,1954889E-005
2	1	0	1	0	90562,4245	2,41874146	2,41925478	0,053730014821253709	3	0,0133347139	0,000129986598
2	1	0	0	0	90785,5703	2,64188719	2,64256215	0,13318756141138277	3	0,0350468569	0,000351956405
2	1	0	1	0	91008,6164	2,86493278	2,86560702	0,16304107144577917	3	0,0689297616	0,000467211648
2	1	0	1	0	91231,6623	3,0879786	3,08860779	0,14584906470972109	3	0,10416431	0,000450470543
2	1	0	1	0	91454,7084	3,31102443	3,31161261	0,11568297732063427	3	0,133600637	0,000383097213
2	1	0	1	0	91677,7545	3,53407049	3,53476429	0,09541360753285088	3	0,157138124	0,000337264617
2	1	0	1	0	91900,8005	3,75711608	3,757725	0,087920059935246541	3	0,177639484	0,000330379407
2	1	0	1	0	92123,8463	3,98016143	3,98086333	0,082961177198421773	3	0,196651325	0,000330257113
2	0	0	1	0	92345,3921	3,79832435	3,79802799	0,021363225375400307	3	0,205685437	8,11381251E-005
2	0	0	1	0	92568,4376	3,57527852	3,57504129	0,0089772993144104922	3	0,208800912	3,20942163E-005
2	0	0	0	0	92809,3871	3,33432937	3,33401299	0,0021596172013474899	3	0,210105225	7,2001917E-006
2	0	0	1	0	93063,0391	3,08067679	3,08038807	-0,00029001517238724102	3	0,210216016	8,93359299E-007
2	0	0	0	0	93325,2928	2,81842327	2,81820655	-0,0015834636070138371	3	0,209558725	4,46252761E-006
2	0	0	0	0	93567,7427	2,57597351	2,57574463	-0,0083321621746553779	3	0,208310246	2,14615211E-005
2	0	0	0	0	93790,7883	2,35292768	2,35274649	-0,042849506410877094	3	0,203598857	0,000100814024
2	0	0	0	0	94013,9341	2,12978172	2,12961125	-0,12472913913815219	3	0,183225319	0,000265624578
2	0	0	1	0	94236,9797	1,9067359	1,90662837	-0,13899286356689	3	0,152852207	0,000265007751
2	0	0	0	0	94460,0255	1,68369019	1,68426418	-0,11606738994149192	3	0,124182716	0,000195488145
2	0	0	0	0	94683,0711	1,46064425	1,46116149	-0,09110571093119369	3	0,101169005	0,000133120164
2	0	0	0	0	94906,1169	1,23759866	1,23818767	-0,082983932358972058	3	0,0821489319	0,000102749684
2	0	0	0	0	95129,1625	1,01455283	1,01490235	-0,21501527202927706	3	0,0544852205	0,000218219502
2	0	0	0	0	95352,2084	0,791507125	0,792057514	-0,35933740863138566	3	-0,0122988289	0,000284615904
2	0	0	1	0	95575,2542	0,568461299	0,56889677	-0,44963589227779642	3	-0,102980413	0,000255796418
2	1	0	0	1	95797,4004	0,653678715	0,654343367	-0,043933370641328518	3	-0,17480123	2,87475104E-005
2	1	0	0	1	96020,9463	0,877224743	0,877722204	0,21153505724301437	3	-0,151189268	0,000185669021
2	1	0	0	1	96243,9923	1,10027039	1,10077167	0,19472392648942982	3	-0,101960994	0,000214346583
2	1	0	0	1	96467,0382	1,32331622	1,3237766	0,05816960951857408	3	-0,0743551031	7,70035695E-005
2	1	0	0	0	96687,9586	1,54466164	1,54517066	0,015352406761972819	4	0,000430661457	2,37220884E-005
2	1	0	1	0	96911,0043	1,76770759	1,76824653	0,0082953850733404339	4	0,00281783449	1,4668286E-005
2	1	0	1	0	97134,3502	1,99105334	1,99168336	0,0095814530237566118	4	0,00475630118	1,90832197E-005
2	1	0	1	0	97357,5961	2,2142992	2,21501756	0,012132192098091235	4	0,00704148458	2,68730182E-005
2	1	0	1	0	97580,6422	2,43734503	2,43798256	0,043980572989271494	4	0,0122403186	0,000107223867
2	1	0	0	0	97803,8882	2,66059089	2,66121864	0,11357044921378368	4	0,0298353098	0,0003022358
2	1	0	0	0	98026,9341	2,88363647	2,88420177	0,14458470305089978	4	0,0595842525	0,00041701147
2	1	0	0	0	98249,9800	3,1066823	3,10730004	0,13746195679779438	4	0,0912980512	0,000427135557
2	1	0	1	0	98473,0262	3,32972836	3,33035827	0,117369804740594	4	0,119781531	0,000390883506
2	1	0	1	0	98696,0722	3,55277443	3,55343485	0,10538408103291747	4	0,144318596	0,000374475465
2	1	0	1	0	98919,1182	3,77582002	3,7765553	0,10761459717431077	4	0,167787254	0,000406412466
2	1	0	1	0	99142,1642	3,99886584	3,99954224	0,10662432367269091	4	0,192006648	0,000426448474
2	0	0	0	0	99364,0096	3,77932048	3,77904105	0,026080925580312662	4	0,202700943	9,85608858E-005
2	0	0	0	0	99587,0553	3,55627418	3,55602312	0,01213124153422923	4	0,20667845	4,31389744E-005
2	0	0	1	0	99626,0631	3,51726675	3,51701069	0,010396376856810718	4	0,207122624	3,65641681E-005