File: Experimentelles/Ausgewaehlte_Daten/LATP/CV/LATP_Korrosion_02_CV_C02.txt
EC-Lab ASCII FILE
Nb header lines : 69

Cyclic Voltammetry

Run on channel : 2 (SN 6986)
Grouped channel(s) : 2
User :
CE vs. WE compliance from -10 V to 10 V
Electrode connection : standard
Ewe ctrl range : min = 0,00 V, max = 5,00 V
Acquisition started on : 09/02/2015 11:42:26
Saved on :
	File : LATP_Korrosion_02_CV_C02.mpr
	Directory : C:\Hupfer\Stabilitätstest Folie gegen Li\
	Host : 192.168.0.2
Device : VMP3 (SN 0324)
Address : 192.168.0.1
EC-Lab for windows v10.33 (software)
Internet server v10.33 (firmware)
Command interpretor v10.32 (firmware)
Electrode material : LATP
Initial state :
Electrolyte : LP-30
Comments :
Mass of active material : 0,001 mg
 at x = 0,000
Molecular weight of active material (at x = 0) : 0,001 g/mol
Atomic weight of intercalated ion : 0,001 g/mol
Acquisition started at : xo = 0,000
Number of e- transfered per intercalated ion : 1
for DX = 1, DQ = 26,801 mA.h
Battery capacity : 0,000 A.h
Reference electrode : Li+/Li (-3,020 V)
Electrode surface area : 0,001 cm²
Characteristic mass : 0,001 g
Ei (V)              0,000
vs.                 Eoc
dE/dt               10,000
dE/dt unit          mV/s
E1 (V)              4,000
vs.                 Ref
Step percent        50
N                   10
E range min (V)     0,000
E range max (V)     5,000
I Range             Auto
Bandwidth           5
E2 (V)              1,200
vs.                 Ref
nc cycles           0
Reverse Scan        1
Ef (V)              0,000
vs.                 Eoc

Modify on : 09/02/2015 11:45
Electrode material :
Electrolyte :

Number of loops : 7
Loop 0 from point number 0 to 5598
Loop 1 from point number 5599 to 11198
Loop 2 from point number 11199 to 16798
Loop 3 from point number 16799 to 22397
Loop 4 from point number 22398 to 27997
Loop 5 from point number 27998 to 33597
Loop 6 from point number 33598 to 39197

mode	ox/red	error	control changes	counter inc.	time/s	control/V	Ewe/V	<I>/mA	cycle number	(Q-Qo)/C	P/W
2	1	0	0	0	163,3116	2,46410131	2,46385574	-0,0014299086760729552	1	0	3,52308871E-006
2	1	0	1	0	199,5540	2,82652473	2,82676363	0,31691445920754368	1	0,00845485833	0,00089584227
2	1	0	0	0	235,7614	3,18859911	3,18883991	0,18206165125593632	1	0,0175521672	0,00058056548
2	1	0	1	0	271,9688	3,55067348	3,55088115	0,12627639295533254	1	0,0231000949	0,000448392471
2	1	0	1	0	308,1764	3,91274762	3,91306877	0,10380544911863066	1	0,0271240491	0,000406197854
2	0	0	1	0	344,3844	3,725209	3,72548604	-0,014911079891371014	1	0,0279582143	5,55510196E-005
2	0	0	0	0	380,5918	3,36313462	3,36327171	-0,022207463067456128	1	0,0272689108	7,46897349E-005
2	0	0	1	0	416,7992	3,00106049	3,00145316	-0,030726203932082003	1	0,0262600109	9,22232648E-005
2	0	0	0	0	453,0066	2,63898611	2,63935041	-0,094947013564200986	1	0,0246848594	0,000250598445
2	0	0	0	0	489,2542	2,27651191	2,27677035	-0,62478942596526106	1	0,0140977949	0,00142250198
2	0	0	1	0	525,5016	1,91403747	1,91430688	-1,0069743652862523	1	-0,0184608977	0,00192765798
2	0	0	0	0	561,7090	1,55196309	1,55210137	-0,77629516611772685	1	-0,0514098592	0,0012048888
2	1	0	0	1	597,7570	1,20859265	1,20884192	-0,57824140331811507	1	-0,0757343918	0,00069900247
2	1	0	1	1	634,0044	1,57106686	1,57148802	-0,19956170112170541	1	-0,0871392116	0,00031360882
2	1	0	0	1	670,2118	1,93314123	1,93351543	-0,086436809894318349	1	-0,0921925083	0,000167126913
2	1	0	1	1	706,5393	2,29641676	2,29662514	0,011945926546708726	1	-0,0935792103	2,74353151E-005
2	1	0	1	0	742,7439	2,65769029	2,65808606	0,48731176316897517	2	0,00573371816	0,00129531662
2	1	0	1	0	778,9514	3,01976466	3,02030849	0,95747390306658176	2	0,0333282985	0,00289186649
2	1	0	0	0	815,1588	3,3818388	3,38230491	0,89780148560250688	2	0,0683613643	0,00303663826
2	1	0	1	0	851,3662	3,74391294	3,74431944	0,54975413289610842	2	0,0948668346	0,00205845502
2	0	0	1	0	887,4342	3,89544415	3,89603925	0,1672058236026377	2	0,108393915	0,000651440467
2	0	0	0	0	923,6817	3,53296947	3,53343296	0,041818776521868608	2	0,111712635	0,000147763843
2	0	0	0	0	959,9292	3,17049503	3,17087102	-0,0060783444663414784	2	0,112241805	1,92736461E-005
2	0	0	1	0	996,1766	2,80802131	2,80863023	-0,028859406981306765	2	0,111607976	8,10554047E-005
2	0	0	0	0	1032,4240	2,44554663	2,44607306	-0,27231313864252106	2	0,107566506	0,000666097854
2	0	0	0	0	1068,6316	2,08347178	2,08396983	-0,88110187615286861	2	0,0842649266	0,00183618977
2	0	0	1	0	1104,8390	1,72139788	1,72188008	-0,81171002790883763	2	0,0524610355	0,00139766734
2	0	0	0	0	1141,0464	1,35932362	1,35991931	-0,60461986872057062	2	0,0270516966	0,000822234259
2	1	0	1	1	1177,1342	1,40163219	1,40205276	-0,26708475500345318	2	0,0100360028	0,000374466908
2	1	0	1	1	1213,3418	1,76370656	1,76415169	-0,12846173640961434	2	0,0031870415	0,000226625983
2	1	0	0	1	1249,5892	2,12618089	2,12658858	-0,033644388809248141	2	0,000306803471	7,15477727E-005
2	1	0	0	0	1285,8418	2,48855567	2,48904347	0,15408304825218221	3	0,000318797509	0,000383519393
2	1	0	1	0	1322,0492	2,85062957	2,85119128	0,78215392196068659	3	0,0178552326	0,00223007053
2	1	0	0	0	1358,2567	3,21270299	3,21331573	0,95873703693730765	3	0,051186759	0,00308072474
2	1	0	0	0	1394,4642	3,57477832	3,5751214	0,68517889234202829	3	0,0817447081	0,0024495977
2	1	0	1	0	1430,6716	3,93685269	3,93736315	0,3751445848632713	3	0,100560419	0,00147708051
2	0	0	0	0	1466,7494	3,7024045	3,70296407	0,078366200198178189	3	0,107179917	0,000290187221
2	0	0	1	0	1502,9968	3,33993006	3,34038472	0,011452531784824582	3	0,10860537	3,8255861E-005
2	0	0	1	0	1539,2744	2,97715569	2,97756529	-0,017335306380927117	3	0,108401	5,16170076E-005
2	0	0	0	0	1575,4818	2,61508155	2,61545324	-0,097510588553699546	3	0,107000262	0,000255034392
2	0	0	1	0	1611,7292	2,25260663	2,25306487	-0,69877288600912909	3	0,0950176865	0,00157438067
2	0	0	0	0	1647,9366	1,89053249	1,89113104	-0,87090935627066918	3	0,0646403804	0,00164700369
2	0	0	0	0	1684,1442	1,52845836	1,52894342	-0,67543267355196864	3	0,0363401175	0,00103269832
2	1	0	1	1	1720,2420	1,23259759	1,2331847	-0,46274881106283949	3	0,0146506261	0,000570654753
2	1	0	0	1	1756,4494	1,59467185	1,59526122	-0,17798875748283382	3	0,00477126101	0,000283938571
2	1	0	1	1	1792,6568	1,95674622	1,95718646	-0,074406510891599667	3	0,00030195326	0,000145627419
2	1	0	1	1	1828,9844	2,32002091	2,32047796	0,020157421339751734	3	-0,000748872699	4,67748505E-005
2	1	0	0	0	1865,1512	2,68119502	2,68161988	0,50835044357787853	4	0,00653990731	0,0013632027
2	1	0	1	0	1901,3586	3,0432694	3,04382968	0,93713168523930074	4	0,0342155173	0,00285246922
2	1	0	0	0	1937,5660	3,40534353	3,40585279	0,82867247790650022	4	0,0675524995	0,00282233651
2	1	0	0	0	1973,7736	3,76741815	3,76806402	0,49253595729103949	4	0,0913937613	0,00185590703
2	0	0	1	0	2009,8913	3,8714397	3,87182808	0,14576366666221539	4	0,103386641	0,000564371876
2	0	0	0	0	2046,1387	3,50896454	3,5095377	0,034076258635010342	4	0,106239229	0,000119591918
2	0	0	1	0	2082,3861	3,14649057	3,14686036	-0,0072335477819218125	4	0,106623977	2,27629644E-005
2	0	0	1	0	2118,6337	2,78401613	2,78461504	-0,029684536922205626	4	0,105969109	8,2660008E-005
2	0	0	0	0	2154,8811	2,42154169	2,42198205	-0,29026210697850765	4	0,101600803	0,000703009602
2	0	0	1	0	2191,0885	2,05946732	2,05997252	-0,85269006590048589	4	0,07816495	0,00175651815
2	0	0	0	0	2227,2959	1,69739294	1,69786465	-0,76690872199833395	4	0,0477718674	0,00130210724
2	0	0	1	0	2263,5034	1,33531928	1,33586884	-0,57979555617447782	4	0,0237080213	0,00077453081
2	1	0	1	1	2299,5913	1,42563713	1,42601907	-0,24618141387623802	4	0,0079549877	0,000351059396
2	1	0	0	1	2335,7987	1,7877115	1,7881937	-0,11747133978470046	4	0,00163532654	0,000210061509
2	1	0	1	1	2372,0461	2,15018606	2,15072417	-0,026371606664421731	4	-0,000920143328	5,67180505E-005
2	1	0	0	0	2408,3489	2,5122602	2,51274276	0,1824931888841088	5	0,000685300678	0,000458558439
2	1	0	0	0	2444,5565	2,87433434	2,87492609	0,79101980656937523	5	0,0191219393	0,00227412349
2	1	0	1	0	2480,7639	3,23640871	3,23689985	0,92477426940092045	5	0,0519680418	0,00299340161
2	1	0	0	0	2516,9713	3,59848309	3,5989368	0,63380271782753856	5	0,0807810202	0,00228101597
2	1	0	1	0	2553,1787	3,96055746	3,96109319	0,35401965988179104	5	0,098237209	0,00140230486
2	0	0	1	0	2589,2867	3,6783998	3,67884254	0,070181163010636045	5	0,104072027	0,000258185435
2	0	0	0	0	2625,5341	3,31592488	3,31636071	0,0086685400111256102	5	0,105308652	2,87480052E-005
2	0	0	1	0	2661,8215	2,95305061	2,95345187	-0,017847692384815664	5	0,105068594	5,27123011E-005
2	0	0	0	0	2698,0690	2,59057713	2,59103799	-0,10964868720982634	5	0,103516042	0,00028410391
2	0	0	0	0	2734,2765	2,22850204	2,22892523	-0,70647620278651942	5	0,0906204209	0,00157468265
2	0	0	1	0	2770,4839	1,86642778	1,86686206	-0,84040871483307994	5	0,0608489849	0,0015689272
2	0	0	0	0	2806,6913	1,5043534	1,50485682	-0,6481241523805577	5	0,0336906388	0,000975334027
2	1	0	1	1	2842,7791	1,25660253	1,25728464	-0,40231089631992314	5	0,0129430303	0,000505819335
2	1	0	0	1	2878,9866	1,61867607	1,61916459	-0,16593803353271754	5	0,00387383392	0,000268680975
2	1	0	0	1	2915,1941	1,98075116	1,98113942	-0,066435637254337318	5	-0,000242517111	0,000131618261
2	1	0	1	1	2951,5215	2,34402561	2,3445375	0,029337176884938477	5	-0,00102729339	6,87821084E-005
2	1	0	0	0	2987,6523	2,70449948	2,7049675	0,53854441497888826	6	0,00758404424	0,00145674509
2	1	0	1	0	3023,8597	3,06657386	3,06697297	0,92853938995136384	6	0,0357054509	0,00284780515
2	1	0	1	0	3060,0673	3,42864799	3,42917371	0,78527917975076634	6	0,0680817217	0,00269285869
2	1	0	0	0	3096,2747	3,79072237	3,79118395	0,46217797130898221	6	0,0905042216	0,0017522017
2	0	0	1	0	3132,3625	3,84843445	3,84888053	0,13243451340261947	6	0,1015037	0,000509724603
2	0	0	0	0	3168,6100	3,48596001	3,48651862	0,029847638604587155	6	0,104080819	0,000104064347
2	0	0	0	0	3204,8575	3,1234858	3,12386036	-0,0078096389447131725	6	0,104390867	2,43962222E-005
2	0	0	1	0	3241,1049	2,7610116	2,76155663	-0,031768581911886861	6	0,103714436	8,77307393E-005
2	0	0	0	0	3277,3523	2,39853668	2,39908838	-0,32113185942311072	6	0,098858282	0,000770423736
2	0	0	0	0	3313,5599	2,03646231	2,03688264	-0,84101136705315046	6	0,0748186409	0,00171304145
2	0	0	1	0	3349,7673	1,67438817	1,67481506	-0,74000437999212915	6	0,0452492014	0,00123937044
2	0	0	0	0	3385,9747	1,31231403	1,31279671	-0,56815541218276122	6	0,021952657	0,000745872559
2	1	0	0	1	3422,0627	1,4486419	1,4490999	-0,23073512260560752	6	0,00716521125	0,00033435825
2	1	0	1	1	3458,2701	1,81071615	1,81116295	-0,10897483361057091	6	0,00124513032	0,000197371177
2	1	0	0	1	3494,5176	2,17319036	2,17362142	-0,020094174489199283	6	-0,0010470862	4,36771297E-005
2	1	0	1	0	3530,7525	2,53456497	2,53499556	0,21578983872852957	7	0,00110725174	0,000547026284
2	1	0	0	0	3566,9599	2,89663935	2,89721465	0,80508247100644147	7	0,0205925666	0,00233249669
2	1	0	1	0	3603,1673	3,25871348	3,25928235	0,90086414761565696	7	0,0532186367	0,00293617067
2	1	0	0	0	3639,3747	3,62078762	3,62141633	0,60187908075749875	7	0,0808552653	0,00217965478
2	1	0	1	0	3675,5822	3,98286223	3,98345304	0,33865046283455322	7	0,0974244699	0,00134899816
2	0	0	1	0	3711,6601	3,65639496	3,65696335	0,063855819102307814	7	0,102584422	0,000233518396
2	0	0	0	0	3747,9075	3,29392052	3,29432988	0,0068325621304447526	7	0,103682064	2,25087133E-005
2	0	0	0	0	3784,1951	2,93104625	2,93155503	-0,018391122735381376	7	0,103410989	5,39145876E-005
2	0	0	1	0	3820,4425	2,56857204	2,56916285	-0,12243084775076984	7	0,101683035	0,000314544799
2	0	0	0	0	3856,6499	2,20649743	2,20705509	-0,7184957804641225	7	0,0877698064	0,0015857598
2	0	0	1	0	3892,8573	1,84442317	1,84512091	-0,81927123679607309	7	0,0582848191	0,00151165447
2	0	0	1	0	3929,0649	1,4823488	1,48288	-0,62913854634044416	7	0,0319355279	0,000932936964
2	1	0	0	1	3965,1528	1,27860725	1,27905238	-0,36269860356798131	7	0,0119516673	0,000463910517
2	1	0	0	1	4001,3603	1,64068127	1,64131105	-0,15645205626195248	7	0,00348004699	0,000256786501
2	1	0	1	1	4037,5677	2,00275564	2,00324988	-0,059812305219195456	7	-0,000353067211	0,000119818993
2	1	0	0	1	4073,8951	2,36602998	2,36649704	0,038692123946492186	7	-0,000905740832	9,15647979E-005
2	1	0	1	1	4083,9271	2,46640182	2,46688032	0,11586372833698944	7	-0,000187527199	0,000285821938