File: Experimentelles/Ausgewaehlte_Daten/Gefuege/CV/150807_LTO_LLTO_Li_05_CV_C03.txt
EC-Lab ASCII FILE
Nb header lines : 59

Cyclic Voltammetry

Run on channel : 3 (SN 6987)
Grouped channel(s) : 3
User :
CE vs. WE compliance from -10 V to 10 V
Electrode connection : standard
Ewe ctrl range : min = 0,00 V, max = 5,00 V
Acquisition started on : 08.07.2015 14:47:55
Saved on :
	File : 150807_LTO_LLTO_Li_05_CV_C03.mpr
	Directory : C:\Gielisch\ASS\LTO_LLTO_Li\02\
	Host : 192.168.0.2
Device : VMP3 (SN 03240324)
Address : 192.168.0.1
EC-Lab for windows v10.33 (software)
Internet server v10.33 (firmware)
Command interpretor v10.32 (firmware)
Electrode material :
Initial state :
Electrolyte :
Comments :
Mass of active material : 0,001 mg
 at x = 0,000
Molecular weight of active material (at x = 0) : 0,001 g/mol
Atomic weight of intercalated ion : 0,001 g/mol
Acquisition started at : xo = 0,000
Number of e- transfered per intercalated ion : 1
for DX = 1, DQ = 26,801 mA.h
Battery capacity : 0,000 A.h
Electrode surface area : 0,001 cm²
Characteristic mass : 0,001 g
Ei (V)              0,000
vs.                 Eoc
dE/dt               20,000
dE/dt unit          mV/s
E1 (V)              4,000
vs.                 Ref
Step percent        50
N                   10
E range min (V)     0,000
E range max (V)     5,000
I Range             Auto
Bandwidth           5
E2 (V)              1,000
vs.                 Ref
nc cycles           0
Reverse Scan        1
Ef (V)              0,000
vs.                 Eoc

Number of loops : 2
Loop 0 from point number 0 to 6229
Loop 1 from point number 6230 to 12501

mode	ox/red	error	control changes	counter inc.	time/s	control/V	Ewe/V	<I>/mA	cycle number	(Q-Qo)/C	P/W
2	1	0	1	0	6657,7151	0,887458086	0,888116121	5,6868901765483315E-007	1	0	5,05061881E-010
2	1	0	0	0	6663,9426	1,01200807	1,01264119	1,0214398918125062E-006	1	2,01469885E-009	1,03435216E-009
2	1	0	0	0	6670,1926	1,13700831	1,13770473	1,652815352429735E-006	1	1,02000897E-008	1,88041582E-009
2	1	0	0	0	6676,4426	1,26200843	1,26259935	2,6827058215048922E-006	1	2,37886812E-008	3,38718253E-009
2	1	0	0	0	6682,6926	1,38700867	1,38792086	3,3568214818903802E-006	1	4,24436202E-008	4,65900252E-009
2	1	0	0	0	6688,9426	1,51200879	1,51294887	3,8284368522127878E-006	1	6,53891163E-008	5,79222936E-009
2	1	0	0	0	6695,1926	1,63700902	1,63782537	4,8008495330922982E-006	1	9,22783414E-008	7,86295296E-009
2	1	0	0	0	6701,4426	1,76200914	1,76267111	5,0460894361440013E-006	1	1,23112386E-007	8,89459617E-009
2	1	0	0	0	6707,6926	1,88700938	1,88759673	6,005532665338057E-006	1	1,57879171E-007	1,13360237E-008
2	1	0	0	0	6713,9426	2,01200962	2,01276731	6,4193751941106099E-006	1	1,96459482E-007	1,29207089E-008
2	1	0	0	0	6720,1926	2,13700962	2,13780403	7,0147896046271642E-006	1	2,38853261E-007	1,4996246E-008
2	1	0	0	0	6726,4426	2,2620101	2,2627697	7,7693746671112051E-006	1	2,84817958E-007	1,75803052E-008
2	1	0	0	0	6732,6926	2,38701034	2,38783765	8,1121807416669606E-006	1	3,34555835E-007	1,93705709E-008
2	1	0	0	0	6738,9426	2,51201057	2,51279426	9,0430319001252288E-006	1	3,88270877E-007	2,27232793E-008
2	1	0	0	0	6745,1926	2,63701057	2,63783574	9,3224646764998374E-006	1	4,45818586E-007	2,45911309E-008
2	1	0	0	0	6751,4426	2,76201081	2,76281023	1,0204385223165392E-005	1	5,07141294E-007	2,81927797E-008
2	1	0	0	0	6757,6926	2,88701129	2,88793159	1,0830749918913674E-005	1	5,7260587E-007	3,12784643E-008
2	1	0	0	0	6763,9426	3,01201057	3,01276326	1,1508872439427883E-005	1	6,42707732E-007	3,46735085E-008
2	1	0	1	0	6770,1928	3,13701129	3,13782763	1,2552737236622592E-005	1	7,17966259E-007	3,93883255E-008
2	1	0	1	0	6776,4428	3,26201129	3,26279759	1,3094505127945122E-005	1	7,9824224E-007	4,27247215E-008
2	1	0	1	0	6782,6928	3,38701177	3,38774085	1,4299482603308667E-005	1	8,83790335E-007	4,84429421E-008
2	1	0	1	0	6788,9428	3,512012	3,51276469	1,4835356106838506E-005	1	9,74779709E-007	5,21131156E-008
2	1	0	1	0	6795,1928	3,63701224	3,63767242	1,6095159821816195E-005	1	1,07176163E-006	5,85489204E-008
2	1	0	1	0	6801,4428	3,76201248	3,76289201	1,6915475226950426E-005	1	1,1745193E-006	6,36511075E-008
2	1	0	1	0	6807,6928	3,88701224	3,88793755	1,7752592618257382E-005	1	1,28278009E-006	6,90209703E-008
2	0	0	0	0	6813,8682	3,98941255	3,99039793	1,8130179971312474E-005	1	1,39536724E-006	7,234663E-008
2	0	0	0	0	6820,1182	3,86441231	3,86536956	1,5451992821993018E-005	1	1,49992354E-006	5,9727661E-008
2	0	0	0	0	6826,3682	3,73941231	3,74035978	1,3043511451634803E-005	1	1,58847911E-006	4,87874274E-008
2	0	0	0	0	6832,6182	3,61441255	3,61527419	1,1215116280204208E-005	1	1,66418579E-006	4,05457214E-008
2	0	0	0	0	6838,8682	3,48941183	3,49020576	9,6387413274593715E-006	1	1,72888429E-006	3,36411894E-008
2	0	0	0	0	6845,1182	3,36441159	3,36524892	8,0883046151753766E-006	1	1,78385653E-006	2,72191585E-008
2	0	0	0	0	6851,3682	3,23941159	3,24024749	6,8777266814431846E-006	1	1,83027066E-006	2,2285537E-008
2	0	0	0	0	6857,6182	3,11441183	3,11538219	5,588680924916185E-006	1	1,86896216E-006	1,74108763E-008
2	0	0	1	0	6863,8684	2,98941112	2,99022269	4,7312860287033984E-006	1	1,90076571E-006	1,41475986E-008
2	0	0	1	0	6870,1184	2,86441088	2,86518168	3,413415544226039E-006	1	1,92623338E-006	9,78005588E-009
2	0	0	1	0	6876,3684	2,73941088	2,74011803	2,9771708371352794E-006	1	1,94604445E-006	8,15779977E-009
2	0	0	1	0	6882,6184	2,61441064	2,61514354	1,8072694737619978E-006	1	1,96087603E-006	4,72626915E-009
2	0	0	1	0	6888,8684	2,48941064	2,49009752	1,3338852654951386E-006	1	1,97104305E-006	3,3215044E-009
2	0	0	1	0	6895,1184	2,3644104	2,36512733	6,6654918582746176E-007	1	1,97675217E-006	1,57647373E-009
2	0	0	1	0	6901,3684	2,23941016	2,24015284	-7,0645001597562778E-008	1	1,97845634E-006	1,58255603E-010
2	0	0	1	0	6907,6184	2,11440992	2,11500931	-4,334942445704704E-007	1	1,9766353E-006	9,16844378E-010
2	0	0	1	0	6913,8684	1,98940957	1,98998141	-1,3298587939706232E-006	1	1,97133818E-006	2,64639421E-009
2	0	0	1	0	6920,1184	1,86440933	1,86516678	-1,4288981947334339E-006	1	1,96272867E-006	2,66513345E-009
2	0	0	1	0	6926,3684	1,73940909	1,74018776	-2,2542255862121472E-006	1	1,95095504E-006	3,92277588E-009
2	0	0	1	0	6932,6184	1,61440909	1,61517763	-2,595852320558049E-006	1	1,93614346E-006	4,19276258E-009
2	0	0	1	0	6938,8684	1,48940885	1,49022973	-3,0586250773933664E-006	1	1,91839899E-006	4,55805393E-009
2	0	0	1	0	6945,1184	1,36440861	1,36522412	-3,6646512018865741E-006	1	1,89752859E-006	5,0030704E-009
2	0	0	1	0	6951,3684	1,23940837	1,24010265	-3,8135048578064243E-006	1	1,87366811E-006	4,72913753E-009
2	0	0	1	0	6957,6184	1,11440814	1,11505246	-4,7145857954083654E-006	1	1,84682676E-006	5,25701038E-009
2	0	0	1	1	6963,8188	0,990408003	0,991207778	-5,0977737936785146E-006	1	1,81723942E-006	5,05295317E-009
2	1	0	1	0	9262,9973	0,886107802	0,88663888	-2,3747902084320858E-007	2	-3,97625488E-010	2,10558126E-010
2	1	0	1	0	9269,2473	1,01110804	1,01177812	7,3552297979800461E-007	2	1,18565657E-009	7,44186046E-010
2	1	0	1	0	9275,4973	1,13610828	1,136904	1,8075641829655414E-006	2	9,07574815E-009	2,05502704E-009
2	1	0	1	0	9281,7473	1,2611084	1,26184297	2,4433608684298957E-006	2	2,22397372E-008	3,08313775E-009
2	1	0	1	0	9287,9973	1,38610864	1,38685775	3,2353804350482694E-006	2	4,00115994E-008	4,48701254E-009
2	1	0	1	0	9294,2473	1,51110876	1,51188982	3,7193759878404198E-006	2	6,18927203E-008	5,62328673E-009
2	1	0	1	0	9300,4973	1,63610899	1,63692689	4,4347578609547155E-006	2	8,75527135E-008	7,25937443E-009
2	1	0	1	0	9306,7473	1,76110911	1,76177263	4,890161623852352E-006	2	1,16791021E-007	8,61535288E-009
2	1	0	1	0	9312,9973	1,88610935	1,88677824	5,5846155688683322E-006	2	1,4982966E-007	1,05369313E-008
2	1	0	1	0	9319,2473	2,01110959	2,01173925	6,193884230069847E-006	2	1,86476271E-007	1,24604798E-008
2	1	0	1	0	9325,4973	2,13610983	2,1369276	6,5396372795695142E-006	2	2,2649202E-007	1,39747316E-008
2	1	0	1	0	9331,7473	2,26111007	2,26195097	7,4077046003106253E-006	2	2,70006126E-007	1,67558643E-008
2	1	0	1	0	9337,9973	2,38611031	2,38688135	7,6617873787654656E-006	2	3,17143702E-007	1,82877766E-008
2	1	0	1	0	9344,2473	2,51111078	2,51186919	8,5375185929276774E-006	2	3,67853687E-007	2,14451301E-008
2	1	0	1	0	9350,4973	2,63611054	2,63688803	8,9012528763777062E-006	2	4,22182694E-007	2,34716069E-008
2	1	0	1	0	9356,7473	2,76111078	2,76186728	9,5803787871773312E-006	2	4,80073595E-007	2,6459734E-008
2	1	0	1	0	9362,9973	2,88611126	2,88703775	1,0365323978097278E-005	2	5,41959764E-007	2,99250829E-008
2	1	0	1	0	9369,2473	3,01110935	3,01194334	1,0764002049920314E-005	2	6,081724E-007	3,24205658E-008
2	1	0	0	0	9375,4975	3,13611126	3,13680005	1,1919003224260506E-005	2	6,7908627E-007	3,73875295E-008
2	1	0	0	0	9381,7475	3,26111126	3,26193452	1,2300717442157171E-005	2	7,54740711E-007	4,01241351E-008
2	1	0	0	0	9387,9975	3,38611174	3,38684249	1,3321469839200752E-005	2	8,35229116E-007	4,51177193E-008
2	1	0	0	0	9394,2475	3,51111197	3,51196861	1,4157408736958064E-005	2	9,20799607E-007	4,97203736E-008
2	1	0	0	0	9400,4975	3,63611221	3,63682246	1,4753117861127296E-005	2	1,01149817E-006	5,36544711E-008
2	1	0	0	0	9406,7475	3,76111245	3,76198006	1,59286189458456E-005	2	1,10737165E-006	5,99231456E-008
2	1	0	0	0	9412,9975	3,88611221	3,88683844	1,6501632337116896E-005	2	1,20842788E-006	6,41391793E-008
2	0	0	0	0	9419,1679	3,99041271	3,9913497	1,7183705939192778E-005	2	1,31351385E-006	6,85861821E-008
2	0	0	0	0	9425,4179	3,86541224	3,86621523	1,4296830209382813E-005	2	1,41095143E-006	5,52746222E-008
2	0	0	0	0	9431,6679	3,74041247	3,74127173	1,1999472768046098E-005	2	1,49313837E-006	4,48932873E-008
2	0	0	0	0	9437,9179	3,61541224	3,61615896	1,0456405163949987E-005	2	1,56289036E-006	3,7812022E-008
2	0	0	0	0	9444,1679	3,490412	3,49122882	8,5139378806313165E-006	2	1,62215531E-006	2,97241058E-008
2	0	0	0	0	9450,4179	3,36541152	3,36610293	7,5615693186103322E-006	2	1,67220321E-006	2,5453021E-008
2	0	0	0	0	9456,6679	3,24041128	3,24126196	5,9194624047567462E-006	2	1,71422994E-006	1,91865279E-008
2	0	0	0	0	9462,9179	3,11541152	3,11614513	5,1639935729023546E-006	2	1,74903107E-006	1,60917537E-008
2	0	0	0	0	9469,1679	2,99041414	2,99111152	3,8279676480756864E-006	2	1,77733523E-006	1,14498784E-008
2	0	0	1	0	9475,4181	2,8654108	2,86628008	3,2728150033165421E-006	2	1,7999314E-006	9,38080458E-009
2	0	0	1	0	9481,6681	2,7404108	2,74124813	2,3266359814352445E-006	2	1,81741325E-006	6,37788666E-009
2	0	0	1	0	9487,9181	2,61541057	2,61609101	1,662542490360263E-006	2	1,83003476E-006	4,34936265E-009
2	0	0	1	0	9494,1681	2,4904108	2,49111676	1,0518001671062994E-006	2	1,83824773E-006	2,62015698E-009
2	0	0	1	0	9500,4181	2,36541009	2,36606646	3,258068719464089E-007	2	1,84240105E-006	7,70880693E-010
2	0	0	1	0	9506,6681	2,24040985	2,24119401	-3,9400443449009747E-008	2	1,84298608E-006	8,83040377E-011
2	0	0	1	0	9512,9181	2,11540961	2,11606812	-8,5323217804247462E-007	2	1,84016506E-006	1,80549742E-009
2	0	0	1	0	9519,1681	1,99040973	1,99114251	-1,0401099826890973E-006	2	1,83411191E-006	2,07100714E-009
2	0	0	1	0	9525,4181	1,86540914	1,86605656	-1,8424461415741443E-006	2	1,82505926E-006	3,43810869E-009
2	0	0	1	0	9531,6681	1,74040914	1,7410419	-1,9971951367200317E-006	2	1,81301323E-006	3,47720031E-009
2	0	0	1	0	9537,9181	1,6154089	1,61617863	-2,7520750142652733E-006	2	1,79818892E-006	4,44784476E-009
2	0	0	1	0	9544,1681	1,49040866	1,4910928	-2,9837559558242874E-006	2	1,78049186E-006	4,44905712E-009
2	0	0	1	0	9550,4181	1,36540866	1,36625171	-3,5040072154770214E-006	2	1,75997297E-006	4,78735585E-009
2	0	0	1	0	9556,6681	1,24040842	1,24113035	-3,9723805971692544E-006	2	1,73650244E-006	4,93024199E-009
2	0	0	1	0	9562,9181	1,1154083	1,11626697	-4,4027297926584774E-006	2	1,71013266E-006	4,91462204E-009
2	0	0	1	1	9569,1185	0,99140799	0,991990745	-4,9524570929154278E-006	2	1,68125314E-006	4,91279151E-009
2	0	0	1	1	9575,3485	0,866807997	0,867096305	-4,2187188017978336E-006	2	1,64920937E-006	3,65803543E-009
2	0	0	0	1	9575,3538	0,866658032	0,867616951	-3,8244106690399347E-006	2	1,64919095E-006	3,31812355E-009