File: Experimentelles/Ausgewaehlte_Daten/LiS/GCPL/LiS_NMR_05_GCPL_C01.mpt
EC-Lab ASCII FILE
Nb header lines : 72

Galvanostatic Cycling with Potential Limitation

Run on channel : 1 (SN 6985)
Grouped channel(s) : 1
User :
CE vs. WE compliance from -10 V to 10 V
Electrode connection : standard
Ewe ctrl range : min = 0,00 V, max = 5,00 V
Acquisition started on : 09.17.2015 16:13:32
Saved on :
	File : LiS_NMR_05_GCPL_C01.mpr
	Directory : C:\Gielisch\NeueZelle\LiS-Test\150917\
	Host : 192.168.0.2
Device : VMP3 (SN 0324)
Address : 192.168.0.1
EC-Lab for windows v10.33 (software)
Internet server v10.33 (firmware)
Command interpretor v10.32 (firmware)
Electrode material :
Initial state :
Electrolyte :
Comments :
Mass of active material : 0,001 mg
 at x = 0,000
Molecular weight of active material (at x = 0) : 0,001 g/mol
Atomic weight of intercalated ion : 0,001 g/mol
Acquisition started at : xo = 0,000
Number of e- transfered per intercalated ion : 1
for DX = 1, DQ = 26,801 mA.h
Battery capacity : 0,000 A.h
Electrode surface area : 0,001 cm²
Characteristic mass : 0,001 g
Ns                  0                   1                   2
Set I/C             I                   I                   I
Is                  0,000               30,000              -30,000
unit Is             mA                  µA                  µA
vs.                 <None>              <None>              <None>
N                   1                   1                   1
I sign              > 0                 > 0                 > 0
t1 (h:m:s)          0:00:0,0000         8:00:0,0000         8:00:0,0000
I Range             100 µA              100 µA              100 µA
Bandwidth           5                   5                   5
dE1 (mV)            0,00                10,00               10,00
dt1 (s)             0,0000              10,0000             10,0000
EM (V)              0,000               2,800               1,400
tM (h:m:s)          0:00:0,0000         0:00:0,0000         0:00:0,0000
Im                  0,000               0,000               0,000
unit Im             mA                  mA                  mA
E range min (V)     0,000               0,000               0,000
E range max (V)     5,000               5,000               5,000
dq                  0,000               1,000               1,000
unit dq             mA.h                mA.h                mA.h
dtq (s)             0,0000              120,0000            120,0000
dQM                 0,000               0,000               0,000
unit dQM            mA.h                mA.h                mA.h
dxM                 0,000               0,000               0,000
tR (h:m:s)          0:00:0,0000         0:00:0,0000         0:00:0,0000
dER/dt (mV/h)       0,0                 0,1                 0,1
dER (mV)            0,00                5,00                5,00
dtR (s)             1,0000              120,0000            120,0000
EL (V)              pass                4,200               3,500
goto Ns'            0                   0                   0
nc cycles           0                   0                   0

Number of loops : 2
Loop 0 from point number 0 to 5212
Loop 1 from point number 5213 to 10615

mode	ox/red	error	control changes	Ns changes	counter inc.	Ns	time/s	control/V/mA	Ewe/V	dq/mA.h	<I>/mA	P/W	(Q-Qo)/mA.h	x	Capacity/mA.h
1	1	0	0	1	0	1	3243,1485	0,0300000012	2,58654356	0	0	0	0	0	0
1	1	0	0	0	0	1	4959,2571	0,0300000012	2,3586266	8,335478912293911E-005	0,030007724447567405	7,07770159E-005	0,014304122977570274	-0,00053370606039103322	0,014304122977570274
1	1	0	0	0	0	1	6829,2571	0,0300000012	2,34682608	8,3354379388607219E-005	0,030007576943206138	7,04225677E-005	0,029891358302038528	-0,0011152867676077285	0,029891358302038528
1	1	0	0	0	0	1	8699,2570	0,0300000012	2,35646892	8,3353824824094771E-005	0,030007377299979238	7,07114523E-005	0,045478586537717658	-0,0016968672103321706	0,045478586537717658
1	1	0	0	0	0	1	10569,2570	0,0300000012	2,37252784	8,3354332842760614E-005	0,030007560186701158	7,11937755E-005	0,061065751742792832	-0,0022784453013000336	0,061065751742792832
1	1	0	0	0	0	1	12439,2570	0,0300000012	2,389045	8,3354486272980774E-005	0,030007615421581082	7,16895447E-005	0,076653089569436006	-0,0028600298330106906	0,076653089569436006
1	1	0	0	0	0	1	14309,2570	0,0300000012	2,402354	8,3354984473023155E-005	0,030007794773598515	7,2089344E-005	0,092240387158981261	-0,0034416128634211251	0,092240387158981261
1	1	0	0	0	0	1	16179,2570	0,0300000012	2,40982008	8,33542847821696E-005	0,030007542884888179	7,23127814E-005	0,1078277168504048	-0,0040231970915957997	0,1078277168504048
1	1	0	0	0	0	1	18049,2569	0,0300000012	2,41782093	8,335501146213047E-005	0,030007804489677267	7,25534992E-005	0,12341507468269496	-0,0046047823697440435	0,12341507468269496
1	1	0	0	0	0	1	19919,2569	0,0300000012	2,42860961	8,3354987891597888E-005	0,030007796004285427	7,28772211E-005	0,13900250275527082	-0,0051863702686517856	0,13900250275527082
1	1	0	0	0	0	1	21789,2569	0,0300000012	2,44810557	8,3355426609619622E-005	0,030007953942775168	7,34626374E-005	0,15458993382529661	-0,0057679582793984154	0,15458993382529661
1	1	0	0	0	0	1	23659,2569	0,0300000012	2,52318668	8,3355208271183091E-005	0,030007875340937062	7,57154703E-005	0,17017733536915472	-0,0063495451884840307	0,17017733536915472
1	1	0	0	0	0	1	25529,2568	0,0300000012	2,76061273	8,3355685852985408E-005	0,030008047270387981	8,28405973E-005	0,1857647505573929	-0,0069311326066598106	0,1857647505573929
1	0	0	1	0	0	2	27092,2698	-0,0300000012	2,33416605	-8,3309174728476339E-005	-0,02999130326536199	7,00046803E-005	0,18221176229840829	-0,0067985658376735744	0,0082884503060292672
1	0	0	1	0	0	2	28962,2698	-0,0300000012	2,17405534	-8,3308080876349568E-005	-0,02999090947859159	6,52018934E-005	0,16663310839741571	-0,0062173053149046029	0,023867104207021901
1	0	0	1	0	0	2	30832,2698	-0,0300000012	2,11312342	-8,3308451758490662E-005	-0,029991042996164	6,33747768E-005	0,15105445643487469	-0,0056360448644618662	0,039445756169562893
1	0	0	1	0	0	2	32702,2698	-0,0300000012	2,06616902	-8,3309711585545702E-005	-0,029991496533909306	6,19675047E-005	0,13547565066730869	-0,0050547786753468544	0,055024561937128806
1	0	0	1	0	0	2	34572,2698	-0,0300000012	2,06257939	-8,3309570242857779E-005	-0,029991445231565376	6,18597405E-005	0,11989661350078702	-0,0044735038524256864	0,070603599103650368
1	0	0	1	0	0	2	36442,2698	-0,0300000012	2,06485152	-8,3311050168549018E-005	-0,029991978004813235	6,19289785E-005	0,10431757055510592	-0,0038922288138763104	0,086182642049331469
1	0	0	1	0	0	2	38312,2698	-0,0300000012	2,06620741	-8,3309803367385434E-005	-0,029991529156395174	6,19687198E-005	0,088738619077342042	-0,0033109571881179059	0,10176159352709534
1	0	0	1	0	0	2	40182,2698	-0,0300000012	2,06649375	-8,3309979616043469E-005	-0,029991592605911955	6,19774364E-005	0,0731596339368592	-0,0027296843063581971	0,11734057866757819
1	0	0	1	0	0	2	42052,2698	-0,0300000012	2,06341958	-8,3310935470172096E-005	-0,029991936713397626	6,18859485E-005	0,057580573623570477	-0,0021484086198000291	0,13291963898086694
1	0	0	1	0	0	2	43922,2698	-0,0300000012	2,05492234	-8,3309788556872973E-005	-0,029991523824610701	6,16302495E-005	0,042001545516737299	-0,0015671341349080202	0,14849866708770006
1	0	0	1	0	0	2	45792,2698	-0,0300000012	2,02337742	-8,331024975867735E-005	-0,029991689857259974	6,06845097E-005	0,026422553959019341	-0,00098586101371264077	0,16407765864541798
1	0	0	1	0	0	2	47662,2698	-0,0300000012	1,87705314	-8,3309240193830605E-005	-0,029991326413915814	5,62953137E-005	0,010843565261650085	-0,00040458799924071738	0,1796566473427871
1	0	0	1	0	0	2	49532,2698	-0,0300000012	1,69811475	-8,3309678681608704E-005	-0,029991484269515635	5,09289821E-005	-0,004735365137096103	0,00017668284003119613	0,19523557774153318
1	0	0	1	0	0	2	51402,2698	-0,0300000012	1,69038129	-8,3309545755696806E-005	-0,029991436416187443	5,06969627E-005	-0,020314311118839955	0,00075795426072570419	0,21081452372327693
1	0	0	1	0	0	2	53272,2698	-0,0300000012	1,68442369	-8,3310361295214144E-005	-0,029991730010413139	5,05187818E-005	-0,035893315785208122	0,0013392278710224477	0,22639352838964502
1	1	0	1	0	0	1	54994,7524	0,0300000012	1,87938273	8,3352549184424179E-005	0,030006917650500467	5,63944814E-005	-0,048621050307520205	0,0018141167586709779	0,00081092895184872448
1	1	0	1	0	0	1	56864,7524	0,0300000012	1,9727186	8,3353004992111693E-005	0,030007081741267661	5,91955286E-005	-0,03303411758029065	0,001232547341764105	0,016397861679078291
1	1	0	1	0	0	1	58734,7524	0,0300000012	2,16301847	8,335339335434967E-005	0,030007221551673075	6,49061767E-005	-0,017447075569868698	0,00065097384735439053	0,031984903689500269
1	1	0	1	0	0	1	60604,7524	0,0300000012	2,24428654	8,3353141214802035E-005	0,030007130781436096	6,73445975E-005	-0,0018600895972341741	6,940244378986903E-005	0,047571889662134803
1	1	0	1	0	0	1	62474,7524	0,0300000012	2,26271296	8,3352430822534694E-005	0,030006875040220326	6,78969445E-005	0,013726888451603874	-0,00051216866412715238	0,063158867710972826
1	1	0	1	0	0	1	64344,7524	0,0300000012	2,27844715	8,3352838566423283E-005	0,030007021828019949	6,83694161E-005	0,02931380511009401	-0,0010937374814877531	0,078745784369462989
1	1	0	1	0	0	1	66214,7659	0,0300000012	2,2818079	8,3354680209213658E-005	0,030007091809494496	6,8470421E-005	0,04490085287968233	-0,0016753111907797078	0,094332832139051341
1	1	0	1	0	0	1	68084,8028	0,0300000012	2,28604698	8,3355137547478093E-005	0,030007256424218074	6,85979976E-005	0,060488226736935616	-0,0022568970668408717	0,1099202059963047
1	1	0	1	0	0	1	69954,8398	0,0300000012	2,29263473	8,3354287026760486E-005	0,030006950345162157	6,87949796E-005	0,076075509136829222	-0,0028384795305049808	0,12550748839619835
1	1	0	1	0	0	1	71824,8767	0,0300000012	2,2999289	8,3352761030197133E-005	0,03000640088512567	6,90125889E-005	0,091662701125592371	-0,0034200586208082528	0,1410946803849617
1	1	0	1	0	0	1	73694,9137	0,0300000012	2,30783439	8,3354224007162778E-005	0,03000692765261687	6,92510221E-005	0,10724990296633616	-0,004001638078702169	0,15668188222570576
1	1	0	1	0	0	1	75564,9506	0,0300000012	2,31780171	8,3353337094912102E-005	0,030006608334536659	6,95493654E-005	0,1228369875847372	-0,0045832131628728698	0,17226896684410672
1	1	0	1	0	0	1	77434,9876	0,0300000012	2,34090662	8,3354191276762227E-005	0,03000691576406169	7,02433899E-005	0,13842416385188427	-0,0051647916665815078	0,18785614311125379
1	1	0	1	0	0	1	79305,0246	0,0300000012	2,59945178	8,3353327873369882E-005	0,030006605056590323	7,80007249E-005	0,15401131826154192	-0,0057463693547578291	0,20344329752091146
1	0	0	0	0	0	2	80866,3122	-0,0300000012	2,17512465	-8,3313882536772224E-005	-0,029992404904127571	6,52372182E-005	0,14719420926677638	-0,0054920138524626016	0,0099130624114704448
1	0	0	0	0	0	2	82736,3491	-0,0300000012	2,11997867	-8,3314588059981658E-005	-0,029992658999541216	6,35838005E-005	0,13161445251983845	-0,004910712181028617	0,025492819158408374
1	0	0	0	0	0	2	84606,3861	-0,0300000012	2,07416987	-8,3314626784477798E-005	-0,029992672843717901	6,2209896E-005	0,11603459604671331	-0,0043294067886765043	0,041072675631533549
1	0	0	0	0	0	2	86476,4231	-0,0300000012	2,03678203	-8,3313188130139469E-005	-0,029992154950612563	6,10874849E-005	0,10045481029815235	-0,0037481040351529709	0,056652461380094566
1	0	0	0	0	0	2	88346,4600	-0,0300000012	2,01682782	-8,3313411147954573E-005	-0,029992235319234899	6,04891757E-005	0,08487518199201696	-0,0031668071560180205	0,072232089686229965
1	0	0	0	0	0	2	90216,4970	-0,0300000012	1,95469296	-8,3313035529417293E-005	-0,029992099987855712	5,86253482E-005	0,069295567377582451	-0,0025855107877388378	0,087811704300664474
1	0	0	0	0	0	2	92086,5339	-0,0300000012	1,68427098	-8,33131849065216E-005	-0,02999215387427767	5,05149146E-005	0,053716063166133786	-0,0020042185387434954	0,10339120851211315
1	0	0	0	0	0	2	93956,5709	-0,0300000012	1,6714201	-8,3312732360739674E-005	-0,029991990902009952	5,01292161E-005	0,038136582844035283	-0,0014229271810919274	0,11897068883421174
1	0	0	0	0	0	2	95826,6078	-0,0300000012	1,671821	-8,331232993263337E-005	-0,029991845977684941	5,01409995E-005	0,022557253818409178	-0,00084164146851516442	0,13455001785983781
1	0	0	0	0	0	2	97696,6448	-0,0300000012	1,66964424	-8,3311560390620582E-005	-0,02999156906011015	5,00752503E-005	0,006978015813553056	-0,00026035915204570854	0,1501292558646937
1	0	0	0	0	0	2	99566,6818	-0,0300000012	1,6671046	-8,3311321709822451E-005	-0,029991483024646886	4,99989401E-005	-0,0086011659445361408	0,0003209210657812489	0,16570843762278285
1	0	0	0	0	0	2	101436,7187	-0,0300000012	1,66576803	-8,3310295615345242E-005	-0,029991113724565408	4,99582384E-005	-0,024180345283399251	0,00090220119334362842	0,18128761696164608
1	0	0	0	0	0	2	103306,7557	-0,0300000012	1,6639539	-8,3311077052313421E-005	-0,029991395039413158	4,99042981E-005	-0,039759423271979763	0,001483477539390697	0,19686669495022646
1	0	0	0	0	0	2	105176,7926	-0,0300000012	1,66162443	-8,3309293261418739E-005	-0,02999075279800384	4,98333684E-005	-0,055338425563488717	0,0020647510610782502	0,21244569724173555
1	0	0	0	0	0	2	107046,8296	-0,0300000012	1,65902746	-8,330971558205783E-005	-0,029990904941802432	4,97557339E-005	-0,070917320594207578	0,0026460205807215114	0,22802459227245466
1	0	0	0	0	0	2	108476,4507	-0,0300000012	1,65765262	-7,9917977027284595E-005	-0,029991117055707942	4,9714854E-005	-0,082827250988980557	0,0030903960968222138	0,23993452266722762