File: Experimentelles/Rohdaten/Batteriemessungen/AlteZelle/Studenten_Batterietests/Test_BigCell/ECLab-Export/BigCellTest2_C02.mpt
EC-Lab ASCII FILE
Nb header lines : 66

Potentio Electrochemical Impedance Spectroscopy

Run on channel : 2 (SN 6986)
Grouped channel(s) : 2
User :
CE vs. WE compliance from -10 V to 10 V
Electrode connection : standard
Ewe ctrl range : min = -10,00 V, max = 10,00 V
Acquisition started on : 02.11.2015 10:59:11
Saved on :
	File : BigCellTest2_C02.mpr
	Directory : C:\Hupfer\Studenten Batterietests\Test_BigCell\
	Host : 192.168.0.2
Device : VMP3 (SN 0324)
Address : 192.168.0.1
EC-Lab for windows v10.33 (software)
Internet server v10.33 (firmware)
Command interpretor v10.32 (firmware)
Electrode material : S vs Li
Initial state : charged
Electrolyte : DME:Diox 1:2, 1M LiTFSi
Comments :
Mass of active material : 0,001 mg
 at x = 0,000
Molecular weight of active material (at x = 0) : 0,001 g/mol
Atomic weight of intercalated ion : 0,001 g/mol
Acquisition started at : xo = 0,000
Number of e- transfered per intercalated ion : 1
for DX = 1, DQ = 26,801 mA.h
Battery capacity : 0,000 A.h
Reference electrode : Li+/Li (-3,020 V)
Electrode surface area : 0,001 cm²
Characteristic mass : 0,001 g
Multi Sine          0
E (V)               0,0000
vs.                 Eoc
tE (h:m:s)          0:00:0,0000
record              0
dI                  0,000
unit dI             mA
dt (s)              0,000
fi                  1,000
unit fi             MHz
ff                  1,000
unit ff             Hz
Sel Nd              1
Nd                  6
Nt                  51
Log                 1
Va (mV)             10,0
pw                  0,10
Na                  2
E range min (V)     -10,000
E range max (V)     10,000
I Range             Auto
Bandwidth           5
corr                0
nc cycles           0
goto Ns'            0
nr cycles           0
inc. cycle          0

freq/Hz	Re(Z)/Ohm	-Im(Z)/Ohm	|Z|/Ohm	Phase(Z)/deg	time/s	<Ewe>/V	<I>/mA	Cs/µF	Cp/µF	cycle number	I Range	|Ewe|/V	|I|/A	Re(Y)/Ohm-1	Im(Y)/Ohm-1	|Y|/Ohm-1	Phase(Y)/deg
1000024,25	5427,19434	3044,7627	6222,94287	-29,2932816	3,2966	-0,925046861	-0,000493559113	5,22704395E-005	1,25132874E-005	1	13	0,00550073292	8,83943983E-007	0,000140146978	7,86252131E-005	0,000160695679	29,2932816
681286,5	732,283386	8287,40527	8319,69531	-84,9504013	3,6106	-0,923962235	8,93139168E-006	2,81884859E-005	2,79701035E-005	1	13	0,010236036	1,23033783E-006	1,05794834E-005	0,000119730212	0,00012019671	84,9504013
464160,125	-387,64035	14807,2246	14812,2979	-91,4996109	4,0266	-0,923992097	7,86715555E-006	2,31568065E-005	2,31409467E-005	1	13	0,0100418776	6,77941898E-007	-1,766786E-006	6,74883486E-005	6,75114716E-005	91,4996109
316223,094	-1258,25366	23030,1758	23064,5234	-93,127243	4,3406	-0,924008727	1,05117315E-005	2,18539171E-005	2,17888773E-005	1	13	0,0109108975	4,73059742E-007	-2,36525989E-006	4,32920679E-005	4,33566311E-005	93,127243
215441,859	-2922,03931	35379,2344	35499,6992	-94,7214508	4,6546	-0,924019456	5,81704762E-006	2,08805341E-005	2,07390622E-005	1	13	0,0108417179	3,05403091E-007	-2,31865715E-006	2,8073664E-005	2,81692519E-005	94,7214508
146777,328	4509,50732	63986,5352	64145,2422	-85,9686966	5,1006	-0,924008667	4,46565537E-006	1,69462091E-005	1,68624574E-005	1	14	0,0092474753	1,4416463E-007	1,0959734E-006	1,55510497E-005	1,55896214E-005	85,9686966
100024,406	6530,22705	83521,2422	83776,1406	-85,5293427	5,4146	-0,923854351	2,75174614E-007	1,90509763E-005	1,89352213E-005	1	14	0,0102936812	1,2287127E-007	9,30438432E-007	1,19002543E-005	1,19365732E-005	85,5293427
68127,4297	5136,66016	96647,7969	96784,2031	-86,957695	5,7286	-0,92401123	3,34931701E-006	2,41716443E-005	2,41035577E-005	1	14	0,0103019914	1,06442897E-007	5,48367268E-007	1,03177026E-005	1,03322645E-005	86,957695
46411,125	15051,376	125290,734	126191,57	-83,1497955	6,0426	-0,924003959	-5,02754483E-006	2,73702699E-005	2,69808934E-005	1	14	0,0103178723	8,17635595E-008	9,45181853E-007	7,86788951E-006	7,92445917E-006	83,1497955
31628,4121	8747,87402	235255,859	235418,453	-87,8704681	6,3566	-0,92400378	7,55256337E-007	2,13895819E-005	2,1360047E-005	1	14	0,0102681201	4,36164633E-008	1,57841441E-007	4,24482187E-006	4,24775544E-006	87,8704681
21545,4082	15789,918	316333,469	316727,313	-87,1424255	6,6706	-0,924012542	2,60551974E-006	2,33517949E-005	2,32937546E-005	1	14	0,0101670707	3,21003917E-008	1,57401672E-007	3,15336433E-006	3,15729017E-006	87,1424255
14672,8496	53427,0938	346183,063	350281,563	-81,2266541	6,8826	-0,924000084	-2,18133368E-006	3,13328455E-005	3,0603911E-005	1	14	0,0106834974	3,04997414E-008	4,35438551E-007	2,8214431E-006	2,85484634E-006	81,2266541
10015,2705	-16737,1777	481591,688	481882,438	-91,990448	7,1348	-0,923998475	1,12967928E-006	3,29973045E-005	3,29574978E-005	1	14	0,0108652031	2,25474146E-008	-7,20775049E-008	2,07394282E-006	2,07519497E-006	91,990448
6856,00244	1843,92297	-82,0665894	1845,74829	2,54835391	9,0442	-0,923984706	-0,00421253359	-0,282867312	-0,000559204433	1	12	0,00973275024	5,27306474E-006	0,000541249872	-2,40891477E-005	0,000541785674	-2,54835391
4642,42725	1378,83887	-286,062683	1408,20044	11,7206726	9,4954	-0,923975289	-0,153635576	-0,119843312	-0,00494546676	1	12	0,00919625815	6,53050392E-006	0,00069531973	-0,000144255449	0,000710126187	-11,7206726
3160,05566	646,829895	5,90889072	646,856873	-0,523391187	12,0424	-0,923987389	-0,09274216	8,52352905	0,000711238012	1	12	0,0109471977	1,69236791E-005	0,00154587254	1,41217834E-005	0,00154593703	0,523391187
2152,93286	489,589325	11,9894648	489,736115	-1,40282571	12,7099	-0,923994005	-0,0766555741	6,16580582	0,00369543163	1	12	0,0100904321	2,06038148E-005	0,00204130379	4,99891248E-005	0,0020419159	1,40282571
1468,58972	439,441925	24,9728374	440,15094	-3,25253654	14,1079	-0,923983335	-0,0601870343	4,33962059	0,0139696104	1	12	0,0100849262	2,29124271E-005	0,00226828828	0,000128903484	0,00227194792	3,25253654
999,040405	134,39682	26,2477131	136,935928	-11,0507727	14,8039	-0,923991263	-0,0751422569	6,0693984	0,222994298	1	11	0,0100246286	7,32067056E-005	0,00716727646	0,0013997698	0,00730268518	11,0507727
681,089661	48874,8711	-2079,92871	48919,1094	2,43682027	15,7444	-0,923985004	-0,000656192598	-0,112348527	-0,000203098723	1	13	0,0100097936	2,04619298E-007	2,04234257E-005	-8,69143321E-007	2,04419102E-005	-2,43682027
464,553894	325387,281	73206,9922	333520,844	-12,6795206	16,4409	-0,92399323	-0,000152150591	0,00467984471	0,000225470969	1	14	0,0100313211	3,00770431E-008	2,92519371E-006	6,58122303E-007	2,99831345E-006	12,6795206
316,315765	129958,234	-46748,3242	138110,641	19,7845726	16,8899	-0,923999667	-0,000146260441	-0,0107629979	-0,00123313628	1	14	0,0100280587	7,26088771E-008	6,81317488E-006	-2,45082174E-006	7,2405719E-006	-19,7845726
215,344498	663599,063	-566552,25	872550,938	40,4892693	17,3404	-0,923992693	-0,000317209604	-0,00130450691	-0,000549977238	1	14	0,0100319209	1,14972325E-008	8,71613906E-007	-7,44146348E-007	1,14606485E-006	-40,4892693
146,737289	65,6986465	429,498779	434,494537	-81,3031158	18,0584	-0,923993051	0,000116706877	2,52532744	2,46758962	1	12	0,00986808632	2,2711647E-005	0,000348006812	0,00227506226	0,00230152486	81,3031158
99,9040375	637558,438	236547,266	680026	-20,3558884	18,9999	-0,923992515	-4,75100896E-005	0,00673471391	0,000814899395	1	14	0,0100309895	1,47508912E-008	1,37869733E-006	5,11525059E-007	1,47053197E-006	20,3558884
68,1888962	295,99234	108,109291	315,117584	-20,064394	19,5770	-0,924003839	-0,0679245442	21,5895424	2,54111433	1	12	0,0100450199	3,18770544E-005	0,00298081641	0,00108872389	0,00317341858	20,064394
46,3802681	305,222351	147,075867	338,809662	-25,7277756	20,4698	-0,92399776	-0,0685702041	23,3316498	4,39659739	1	12	0,00998814683	2,94801121E-005	0,00265891687	0,00128123816	0,00295150978	25,7277756
31,5869217	467,18573	43,9724426	469,250549	-5,37695122	20,8997	-0,923991621	-0,0251202602	114,586182	1,00619888	1	12	0,0100380657	2,13916974E-005	0,00212168042	0,000199696762	0,00213105767	5,37695122
21,5220375	18953,8848	-1324643,38	1324779	89,1802292	21,7836	-0,923991978	-4,32277011E-005	-0,00558261666	-0,00558147347	1	14	0,0100463349	7,58340413E-009	1,07996962E-008	-7,54765608E-007	7,54842858E-007	-89,1802292
14,6851501	890,119812	-439,442566	992,684753	26,2750587	22,4432	-0,924067676	-0,113666788	-24,6626453	-4,83304882	1	13	0,0100532295	1,01273135E-005	0,000903286971	-0,000445943093	0,00100736914	-26,2750587
9,9904108	-31,389986	-1181,57959	1181,99646	91,5217667	23,1390	-0,923992634	0,000116036026	-13,482605	-13,4730959	1	12	0,0100392299	8,49345179E-006	-2,24676787E-005	-0,00084572786	0,000846026232	-91,5217667
6,81718969	252,646011	162,80336	300,557709	-32,7974548	23,4784	-0,924004197	-0,0744849369	143,400742	42,0748291	1	12	0,010039527	3,34029937E-005	0,00279676961	0,00180221919	0,00332714804	32,7974548
4,63925123	504,085541	383,499481	633,383057	-37,2632446	23,9633	-0,923995018	-0,0577444471	89,4555817	32,794735	1	12	0,0100408178	1,58526782E-005	0,00125652563	0,000955942844	0,00157882343	37,2632446
3,16039586	733,427429	495,252197	884,98053	-34,0294762	24,6572	-0,92400068	-0,0510918275	101,683907	31,8447342	1	12	0,0100341942	1,13383221E-005	0,000936461031	0,000632352137	0,00112996832	34,0294762
2,1522038	790,771423	775,200867	1107,36438	-44,4303207	25,6625	-0,923999727	-0,0481008217	95,3943176	46,7487373	1	12	0,0100358324	9,06280911E-006	0,00064486661	0,0006321689	0,000903045118	44,4303207
1,46630979	865,083557	783,695801	1167,28259	-42,1740341	27,1240	-0,923997283	-0,0441532992	138,499084	62,4295082	1	12	0,010032868	8,59506326E-006	0,000634901051	0,000575169048	0,000856690574	42,1740341
0,998529792	642,021606	930,280762	1130,31592	-55,3889885	30,3018	-0,923994362	-0,044330284	171,334595	116,057564	1	13	0,0100331996	8,87645638E-006	0,000502516108	0,00072813913	0,000884708425	55,3889885