File: Experimentelles/Rohdaten/Batteriemessungen/AlteZelle/Studenten_Batterietests/Test_BigCell/ECLab-Export/BigCellTest_C02.mpt
EC-Lab ASCII FILE
Nb header lines : 66

Potentio Electrochemical Impedance Spectroscopy

Run on channel : 2 (SN 6986)
Grouped channel(s) : 2
User :
CE vs. WE compliance from -10 V to 10 V
Electrode connection : standard
Ewe ctrl range : min = -10,00 V, max = 10,00 V
Acquisition started on : 02.10.2015 15:13:16
Saved on :
	File : BigCellTest_C02.mpr
	Directory : C:\Hupfer\Studenten Batterietests\Test_BigCell\
	Host : 192.168.0.2
Device : VMP3 (SN 0324)
Address : 192.168.0.1
EC-Lab for windows v10.33 (software)
Internet server v10.33 (firmware)
Command interpretor v10.32 (firmware)
Electrode material : S vs Li
Initial state : charged
Electrolyte : DME:Diox 1:2, 1M LiTFSi
Comments :
Mass of active material : 0,001 mg
 at x = 0,000
Molecular weight of active material (at x = 0) : 0,001 g/mol
Atomic weight of intercalated ion : 0,001 g/mol
Acquisition started at : xo = 0,000
Number of e- transfered per intercalated ion : 1
for DX = 1, DQ = 26,801 mA.h
Battery capacity : 0,000 A.h
Reference electrode : Li+/Li (-3,020 V)
Electrode surface area : 0,001 cm²
Characteristic mass : 0,001 g
Multi Sine          0
E (V)               0,0000
vs.                 Eoc
tE (h:m:s)          0:00:0,0000
record              0
dI                  0,000
unit dI             mA
dt (s)              0,000
fi                  1,000
unit fi             MHz
ff                  1,000
unit ff             Hz
Sel Nd              1
Nd                  6
Nt                  51
Log                 1
Va (mV)             10,0
pw                  0,10
Na                  2
E range min (V)     -10,000
E range max (V)     10,000
I Range             Auto
Bandwidth           5
corr                0
nc cycles           0
goto Ns'            0
nr cycles           0
inc. cycle          0

freq/Hz	Re(Z)/Ohm	-Im(Z)/Ohm	|Z|/Ohm	Phase(Z)/deg	time/s	<Ewe>/V	<I>/mA	Cs/µF	Cp/µF	cycle number	I Range	|Ewe|/V	|I|/A	Re(Y)/Ohm-1	Im(Y)/Ohm-1	|Y|/Ohm-1	Phase(Y)/deg
1000024,25	2963,47485	4693,3999	5550,69238	-57,731144	2,9226	-1,0812825	-0,000353339477	3,39095532E-005	2,42439201E-005	1	13	0,00513055734	9,24309404E-007	9,61849E-005	0,000152332737	0,000180157702	57,731144
681286,5	567,171265	8080,60547	8100,48584	-85,9850388	3,2366	-1,08076608	9,23890366E-006	2,89098898E-005	2,87681614E-005	1	13	0,0101647433	1,25483132E-006	8,64355025E-006	0,000123146412	0,000123449383	85,9850388
464160,125	-503,615021	14456,248	14465,0176	-91,9952164	3,6526	-1,08079767	1,00197376E-005	2,37190197E-005	2,36902688E-005	1	13	0,010216455	7,06287096E-007	-2,40691429E-006	6,9090398E-005	6,91323075E-005	91,9952164
316223,094	-1391,854	22827,8672	22870,2598	-93,4891052	3,9666	-1,08081925	9,95448409E-006	2,2047594E-005	2,1965936E-005	1	13	0,0109003941	4,76618709E-007	-2,66104303E-006	4,36438568E-005	4,37249073E-005	93,4891052
215441,859	-3439,80103	35838,9727	36003,668	-95,4824142	4,2806	-1,08084226	1,10969249E-005	2,06126806E-005	2,04245316E-005	1	13	0,0108841974	3,02308024E-007	-2,65362496E-006	2,76478931E-005	2,77749477E-005	95,4824142
146777,328	6163,37939	72912,5547	73172,5859	-85,1682129	4,7266	-1,08080828	1,89936327E-006	1,48716399E-005	1,47661294E-005	1	14	0,00931796711	1,27342318E-007	1,15112334E-006	1,36177541E-005	1,36663202E-005	85,1682129
100024,406	7226,06006	93883,4063	94161,0859	-85,5987091	5,0406	-1,08097732	3,89969017E-007	1,69482664E-005	1,68484548E-005	1	14	0,0104218628	1,10681206E-007	8,15002238E-007	1,05887802E-005	1,06200987E-005	85,5987091
68127,4297	9684,05762	133664,281	134014,625	-85,8561249	5,3546	-1,08080709	2,42659576E-006	1,74776396E-005	1,73863773E-005	1	14	0,010425901	7,77967415E-008	5,39204052E-007	7,44236468E-006	7,46187197E-006	85,8561249
46411,125	4185,2251	181336,578	181384,875	-88,6778564	5,6686	-1,08080781	1,30056071E-006	1,89109196E-005	1,89008497E-005	1	14	0,0103298742	5,69500287E-008	1,2720858E-007	5,51167113E-006	5,51313906E-006	88,6778564
31628,4121	13118,9658	280528,156	280834,75	-87,3225021	5,9826	-1,08081543	1,1250022E-006	1,79376802E-005	1,78985356E-005	1	14	0,0102903983	3,66421844E-008	1,66340342E-007	3,55692555E-006	3,56081296E-006	87,3225021
21545,4082	14633,8174	405866,344	406130,063	-87,935051	6,2966	-1,08080566	1,06331413E-006	1,82004587E-005	1,81768301E-005	1	14	0,0100600813	2,47705891E-008	8,87212295E-008	2,46066656E-006	2,46226546E-006	87,935051
14672,8496	9020,83398	583431,688	583501,438	-89,1141815	6,5086	-1,08081603	2,18618015E-006	1,85915524E-005	1,85871068E-005	1	14	0,0105430093	1,80685227E-008	2,6494936E-008	1,71358693E-006	1,71379179E-006	89,1141815
10015,2705	3281,92236	816868,313	816874,875	-89,7698059	6,7608	-1,08078456	1,17494847E-006	1,94538425E-005	1,94535296E-005	1	14	0,0107126525	1,31141897E-008	4,91829821E-009	1,22416782E-006	1,22417771E-006	89,7698059
6856,00244	-9906,49805	1147589,38	1147632,13	-90,4945908	7,1102	-1,08078539	3,1390789E-006	2,02284518E-005	2,02269439E-005	1	14	0,0107007548	9,32420274E-009	-7,52168727E-009	8,71326904E-007	8,71359362E-007	90,4945908
4642,42725	123592,063	1641273,25	1645920,13	-85,6936111	7,5614	-1,08078349	1,98378439E-006	2,08878701E-005	2,07700923E-005	1	14	0,00997287966	6,05915185E-009	4,56218494E-008	6,05847617E-007	6,07562924E-007	85,6936111
3160,05566	-48195,5898	1270758	1271671,63	-92,1719971	8,0124	-1,08078527	2,23118764E-006	3,9633509E-005	3,95765819E-005	1	14	0,0102726342	8,07805556E-009	-2,98028375E-008	7,85801546E-007	7,86366513E-007	92,1719971
2152,93286	559992	3023554,75	3074975,5	-79,5071564	8,4639	-1,08078325	1,46642731E-006	2,44496023E-005	2,36387314E-005	1	14	0,0104125766	3,38623085E-009	5,92241172E-008	3,19767622E-007	3,25205832E-007	79,5071564
1468,58972	-530686,938	5352446,5	5378690,5	-95,6622849	8,9149	-1,08078754	2,18282503E-006	2,02473093E-005	2,00502091E-005	1	14	0,0104773287	1,94793293E-009	-1,83436342E-008	1,85011714E-007	1,85918864E-007	95,6622849
999,040405	433703,813	12021813	12029634	-87,9338684	9,3659	-1,08078718	1,82285567E-006	1,32515643E-005	1,32343384E-005	1	14	0,0105011333	8,72938721E-010	2,99701419E-009	8,30740063E-008	8,31280502E-008	87,9338684
681,089661	-3835131,25	11346581	11977192	-108,675194	9,8164	-1,08079028	1,54749728E-006	2,05944798E-005	1,84829314E-005	1	14	0,0105092153	8,7743568E-010	-2,67343854E-008	7,90960897E-008	8,34920257E-008	108,675194
464,553894	-3367618,25	11617025	12095293	-106,166161	10,2679	-1,08078778	1,27977978E-006	2,94909751E-005	2,72048401E-005	1	14	0,0105214491	8,69879668E-010	-2,30191954E-008	7,94076129E-008	8,26767916E-008	106,166161
316,315765	5019148,5	-11523823	12569421	66,4646835	10,7169	-1,08079314	1,45198374E-006	-4,36619084E-005	-3,66999375E-005	1	14	0,0105177406	8,36772096E-010	3,17687103E-008	-7,29400469E-008	7,95581627E-008	-66,4646835
215,344498	1140157,5	24388860	24415496	-87,3234253	11,1674	-1,08078909	1,69323698E-006	3,03036431E-005	3,02375593E-005	1	14	0,0105188312	4,30826042E-010	1,91263982E-009	4,09129122E-008	4,09575946E-008	87,3234253
146,737289	-9689442	27336482	29002906	-109,516922	11,6144	-1,08078706	2,38960024E-006	3,96768337E-005	3,52483839E-005	1	14	0,0105233612	3,62838176E-010	-1,15190266E-008	3,2498221E-008	3,4479303E-008	109,516922
99,9040375	9879912	21428908	23596838	-65,2476807	12,0659	-1,08078182	2,1110734E-006	7,43424825E-005	6,13097436E-005	1	14	0,0105230324	4,45950943E-010	1,77437549E-008	3,848508E-008	4,23785593E-008	65,2476807
68,1888962	-5006006,5	756659,563	5062868	-171,404785	12,5280	-1,0807879	2,26035377E-006	0,00308465026	6,88991349E-005	1	14	0,0105251204	2,07888506E-009	-1,95298185E-007	2,95193896E-008	1,97516513E-007	171,404785
46,3802681	835719,125	569080,5	1011078,19	-34,2527924	12,9668	-1,0807904	2,76615651E-006	0,00602994254	0,00191025378	1	14	0,0105259167	1,04105862E-008	8,1750585E-007	5,56678231E-007	9,89043201E-007	34,2527924
31,5869217	3552870,75	-2644588	4429078,5	36,6622429	13,3967	-1,08078122	1,20793493E-006	-0,00190526247	-0,000679272634	1	14	0,0105204601	2,37531572E-009	1,8111426E-007	-1,34812836E-007	2,25780596E-007	-36,6622429
21,5220375	4179393	-942288,813	4284301	12,7055044	13,8176	-1,08078432	2,12057785E-006	-0,00784788653	-0,000379630277	1	14	0,0105254808	2,45675569E-009	2,27694883E-007	-5,13362437E-008	2,33410304E-007	-12,7055044
14,6851501	3049226	9904645	10363386	-72,888588	14,2790	-1,08078325	1,8599427E-006	0,00109421543	0,000999487354	1	14	0,0105242869	1,01552589E-009	2,83913657E-008	9,22222156E-008	9,6493558E-008	72,888588
9,9904108	25215950	12644267	28208538	-26,6309834	14,7299	-1,0807879	1,96747692E-006	0,00125992042	0,000253144972	1	14	0,0105251539	3,73119452E-010	3,16894102E-008	1,58903148E-008	3,54502596E-008	26,6309834
6,81718969	-2285465	10711928	10953025	-102,043877	15,0694	-1,08078396	2,6951509E-006	0,00217945082	0,00208455906	1	14	0,0105267987	9,61085989E-010	-1,90505069E-008	8,92893155E-008	9,1298979E-008	102,043877
4,63925123	8580461	598172,313	8601286	-3,98782635	15,5543	-1,08077431	2,32567527E-006	0,0573516525	0,00027737784	1	14	0,0105248941	1,22364197E-009	1,15980193E-007	8,0853626E-009	1,16261681E-007	3,98782635
3,16039586	10044764	7889522,5	12772699	-38,147377	16,2493	-1,08077478	1,37398877E-006	0,00638304511	0,00243536476	1	14	0,0105199777	8,23629942E-010	6,15707449E-008	4,83598939E-008	7,82919898E-008	38,147377
2,1522038	46670748	-24967968	52929748	28,1459389	17,2545	-1,08077955	1,5978909E-006	-0,00296178507	-0,000659052923	1	14	0,0105205877	1,98765115E-010	1,66588539E-008	-8,91217145E-009	1,88929672E-008	-28,1459389
1,46630979	106063088	-56402184	120127368	28,0031338	18,7161	-1,08077991	1,83212603E-006	-0,00192441395	-0,000424234924	1	14	0,0105227772	8,75968326E-011	7,34988115E-009	-3,90851707E-009	8,32449754E-009	-28,0031338
0,998529792	37145620	2373857,5	37221396	-3,65661693	20,8487	-1,08077908	1,78134189E-006	0,0671435744	0,000273104233	1	14	0,010523526	2,82727869E-010	2,68115734E-008	1,71344161E-009	2,68662674E-008	3,65661693