File: Experimentelles/Rohdaten/Batterietests/AlteZelle/Batterietest Li vs LATP/ECLab-Export/LATP vs Li Batterietest Probe1_02_GCPL_C01_loop5.mpt
EC-Lab ASCII FILE
Nb header lines : 3
mode	ox/red	error	control changes	Ns changes	counter inc.	Ns	time/s	control/V/mA	Ewe/V	dq/mA.h	<I>/mA	P/W	(Q-Qo)/mA.h	x	Capacity/mA.h
1	1	0	1	1	0	1	17659,81	0,100000001	1,21286619	0	0	0	0	0	0
1	1	0	1	0	0	1	17715,81	0,100000001	2,11741114	5,5563251572764582E-005	0,10001385404186333	0,000211770443	0,0015543954955052912	-5,7996585844273318E-005	0,0015543954955052912
1	1	0	1	0	0	1	17771,81	0,100000001	2,51754475	5,5563273722512851E-005	0,10001389391141069	0,000251789461	0,0031101656293317581	-0,00011604446129253059	0,0031101656293317581
1	1	0	1	0	0	1	17827,81	0,100000001	2,55455065	5,5563167325738406E-005	0,10001370239721437	0,000255490071	0,0046659362704637062	-0,00017409235566903741	0,0046659362704637062
1	1	0	1	0	0	1	17883,81	0,100000001	2,57477236	5,5563019779407315E-005	0,1000134368138152	0,000257511827	0,0062217050650855642	-0,00023214018114977018	0,0062217050650855642
1	1	0	1	0	0	1	17939,81	0,100000001	2,59121299	5,5562935111423334E-005	0,10001328441144219	0,000259155728	0,0077774693778942784	-0,00029018783940802861	0,0077774693778942784
1	1	0	1	0	0	1	17995,81	0,100000001	2,60658431	5,5562947162737453E-005	0,10001330610380786	0,000260693108	0,0093332318011715917	-0,00034823542716533005	0,0093332318011715917
1	1	0	1	0	0	1	18051,81	0,100000001	2,62170744	5,556290621434649E-005	0,10001323239670323	0,000262205431	0,01088899510045423	-0,00040628304760756794	0,01088899510045423
1	1	0	1	0	0	1	18107,81	0,100000001	2,63717437	5,5562929343018266E-005	0,10001327402831294	0,000263752445	0,012444754471691021	-0,00046433052148913395	0,012444754471691021
1	1	0	1	0	0	1	18163,81	0,100000001	2,65329051	5,556303580022521E-005	0,10001346565128776	0,000265364768	0,014000516537438157	-0,00052237809590650368	0,014000516537438157
1	1	0	1	0	0	1	18219,81	0,100000001	2,67022777	5,5563101380649536E-005	0,10001358369605298	0,000267059047	0,015556282622490806	-0,00058042582028956621	0,015556282622490806
1	1	0	1	0	0	1	18275,81	0,100000001	2,68836784	5,5563032042649056E-005	0,10001345888765059	0,000268872973	0,017112048328625136	-0,00063847353053467674	0,017112048328625136
1	1	0	1	0	0	1	18331,81	0,100000001	2,70767283	5,556303962113129E-005	0,10001347252891878	0,00027080375	0,018667813140360742	-0,00069652120740856832	0,018667813140360742
1	1	0	1	0	0	1	18387,81	0,100000001	2,7284863	5,5562997959968115E-005	0,10001339753882416	0,000272885198	0,020223576241499331	-0,00075456882045778534	0,020223576241499331
1	1	0	1	0	0	1	18443,81	0,100000001	2,75099921	5,5562995515349837E-005	0,1000133931385112	0,000275136757	0,021779340204711069	-0,00081261646567211059	0,021779340204711069
1	1	0	1	0	0	1	18499,81	0,100000001	2,77572703	5,556305269317495E-005	0,10001349605859765	0,000277610176	0,023335104609038576	-0,0008706641273450583	0,023335104609038576
1	1	0	1	0	0	1	18555,81	0,100000001	2,80352926	5,5562905203137133E-005	0,10001323057652637	0,000280390028	0,024890867449004934	-0,00092871173064958822	0,024890867449004934
1	1	0	1	0	0	1	18611,81	0,100000001	2,83541775	5,5562998907433619E-005	0,10001339924426208	0,000283579779	0,02644663120972521	-0,0009867593683086848	0,02644663120972521
1	1	0	1	0	0	1	18667,81	0,100000001	2,87265277	5,5562946238451533E-005	0,10001330444009318	0,000287303497	0,028002394731095994	-0,0010448069970373301	0,028002394731095994
1	1	0	1	0	0	1	18723,81	0,100000001	2,91630363	5,5562953160040909E-005	0,10001331689895421	0,000291669188	0,029558157295238125	-0,001102854590050487	0,029558157295238125
1	1	0	1	0	0	1	18779,81	0,100000001	2,96877646	5,5563050066431366E-005	0,10001349133045914	0,000296917686	0,031113919270067066	-0,0011609021610755768	0,031113919270067066
1	1	0	1	0	0	1	18835,81	0,100000001	3,03329825	5,55630112869872E-005	0,10001342152745878	0,000303370529	0,032669682955879194	-0,0012189497959397496	0,032669682955879194
1	1	0	1	0	0	1	18891,81	0,100000001	3,11487174	5,5562980857988198E-005	0,10001336675525994	0,000311528798	0,03422544546939255	-0,0012769973870638792	0,03422544546939255
1	1	0	1	0	0	1	18947,81	0,100000001	3,22121119	5,5562849084950157E-005	0,10001312956378859	0,000322163425	0,035781205370313901	-0,0013350448807086882	0,035781205370313901
1	1	0	1	0	0	1	19003,81	0,100000001	3,36346817	5,5563039588431514E-005	0,10001347247005918	0,000336392142	0,037336967298249306	-0,001393092449984117	0,037336967298249306
1	1	0	1	0	0	1	19059,81	0,100000001	3,55350089	5,5562924402041568E-005	0,10001326513455478	0,000355397235	0,038892733563935501	-0,0014511401811068602	0,038892733563935501
1	1	0	1	0	0	1	19115,81	0,100000001	3,80381584	5,5563056850184998E-005	0,10001350354121584	0,000380432961	0,040448498783818451	-0,0015091878732092781	0,040448498783818451
1	1	0	1	0	0	1	19171,81	0,100000001	4,11042309	5,5563106741756198E-005	0,10001359334604509	0,000411098183	0,042004262741450528	-0,0015672355182154182	0,042004262741450528
1	1	0	1	0	0	1	19227,81	0,100000001	4,38567019	5,5562996106015315E-005	0,10001339420170909	0,00043862575	0,043560024540227629	-0,001625283082671777	0,043560024540227629
1	0	0	0	0	0	2	19281,40	-0,100000001	3,7771728	-5,5545046433806419E-005	-0,099981084791341875	0,000377645832	0,043937744578873421	-0,0016393763251636448	0,00055545371053905946
1	0	0	0	0	0	2	19337,40	-0,100000001	2,56155276	-5,5545086514204742E-005	-0,09998115693605975	0,000256107014	0,042382484582832186	-0,0015813474836420422	0,0021107137065803008
1	0	0	0	0	0	2	19393,40	-0,100000001	2,44041467	-5,5545163508504634E-005	-0,099981295525801216	0,000243995819	0,040827223462814566	-0,0015233186001833696	0,0036659748265979187
1	0	0	0	0	0	2	19449,40	-0,100000001	2,41310906	-5,5545083254161811E-005	-0,099981151067982387	0,000241265428	0,039271959729407302	-0,001465289619215615	0,0052212385600051955
1	0	0	0	0	0	2	19505,40	-0,100000001	2,39943719	-5,5545035845703546E-005	-0,099981065732756493	0,000239898291	0,037716699528970125	-0,0014072607700677248	0,0067764987604423565
1	0	0	0	0	0	2	19561,40	-0,100000001	2,38618517	-5,5545103539195328E-005	-0,099981187581043174	0,00023857363	0,036161437994963482	-0,0013492318711625651	0,0083317602944490022
1	0	0	0	0	0	2	19617,40	-0,100000001	2,37123394	-5,5545119746277728E-005	-0,099981216753791846	0,000237078857	0,034606175042537222	-0,0012912029193342621	0,0098870232468752448
1	0	0	0	0	0	2	19673,40	-0,100000001	2,35437322	-5,5545136977814963E-005	-0,099981247770559232	0,000235393178	0,033050912509654835	-0,0012331739831597053	0,011442285779757632
1	0	0	0	0	0	2	19729,40	-0,100000001	2,33504915	-5,5545151217944096E-005	-0,099981273402791987	0,000233461193	0,031495648724030982	-0,00117514500024368	0,012997549565381466
1	0	0	0	0	0	2	19785,40	-0,100000001	2,31371999	-5,5545254945755002E-005	-0,099981460112853888	0,000231329104	0,029940382066781594	-0,001117115910183445	0,014552816222630842
1	0	0	0	0	0	2	19841,40	-0,100000001	2,29065347	-5,5545193511992698E-005	-0,099981349532080397	0,000229022626	0,028385115279073379	-0,0010590868152556157	0,016108083010339062
1	0	0	0	0	0	2	19897,40	-0,100000001	2,26571536	-5,5545290206869446E-005	-0,099981523582860646	0,000226529679	0,026829850033997942	-0,0010010577778854894	0,017663348255414496
1	0	0	0	0	0	2	19953,40	-0,100000001	2,23890615	-5,5545204677515558E-005	-0,099981369630021798	0,000223848896	0,025274584246057891	-0,00094302872026035469	0,019218614043354547
1	0	0	0	0	0	2	20009,40	-0,100000001	2,20974827	-5,5545041961388454E-005	-0,099981076740989453	0,000220933012	0,02371932074611497	-0,00088499974800346893	0,020773877543297469
1	0	0	0	0	0	2	20065,40	-0,100000001	2,17768788	-5,554506795770592E-005	-0,099981123534361459	0,000217727676	0,022164059229925565	-0,00082697084976309414	0,022329139059486874
1	0	0	0	0	0	2	20121,40	-0,100000001	2,14199948	-5,5545146538979475E-005	-0,099981264980655565	0,000214159823	0,020608797206220813	-0,00076894193258663936	0,023884401083191622
1	0	0	0	0	0	2	20177,40	-0,100000001	2,10195756	-5,5545136507186624E-005	-0,099981246923428224	0,000210156344	0,019053532557842506	-0,0007109129174800855	0,02543966573156993
1	0	0	0	0	0	2	20233,40	-0,100000001	2,05576706	-5,5545011696302227E-005	-0,0999810222638336	0,000205537697	0,01749826971053816	-0,0006528839695740224	0,026994928578874275
1	0	0	0	0	0	2	20289,40	-0,100000001	2,00254941	-5,5545128320240307E-005	-0,099981232186924672	0,000200217357	0,015943005585022144	-0,00059485497397616358	0,028550192704390291
1	0	0	0	0	0	2	20345,40	-0,100000001	1,94005179	-5,5545110922306778E-005	-0,099981200870643955	0,000193968706	0,014387744319934269	-0,00053682608510472442	0,030105453969478163
1	0	0	0	0	0	2	20401,40	-0,100000001	1,86617351	-5,5545104123651981E-005	-0,099981188633065152	0,000186582241	0,012832482297083856	-0,00047879716796014618	0,031660715992328582
1	0	0	0	0	0	2	20457,40	-0,100000001	1,77983212	-5,5545131024387142E-005	-0,09998123705438903	0,000177949812	0,011277220105123064	-0,00042076824450583232	0,033215978184289389
1	0	0	0	0	0	2	20513,40	-0,100000001	1,67922103	-5,5545111498485011E-005	-0,099981201907764774	0,000167890539	0,0097219556117346291	-0,00036273923518215885	0,034771242677677811
1	0	0	0	0	0	2	20569,40	-0,100000001	1,56778324	-5,5545132379978899E-005	-0,099981239494454221	0,000156748909	0,0081666922085619238	-0,00030471026653590003	0,036326506080850522
1	0	0	0	0	0	2	20625,40	-0,100000001	1,45170522	-5,5545132095201146E-005	-0,099981238981854285	0,000145143291	0,0066114295349409613	-0,0002466813251101976	0,037881768754471475
1	0	0	0	0	0	2	20681,40	-0,100000001	1,33900714	-5,5545003058595789E-005	-0,099981006715961805	0,000133875277	0,0050561659061096192	-0,00018865234804431171	0,039437032383302797
1	0	0	0	0	0	2	20737,40	-0,100000001	1,2631048	-5,5545073641671072E-005	-0,099981133765498854	0,000126286643	0,0035009053924724032	-0,00013062348721050701	0,040992292896940013
1	0	0	0	0	0	2	20793,40	-0,100000001	1,22860038	-5,5545135389599533E-005	-0,09998124491177143	0,000122836995	0,0019456452666561219	-7,2594640846822835E-005	0,042547553022756307
1	0	0	0	0	0	2	20849,40	-0,100000001	1,20730948	-5,5545091536309984E-005	-0,099981165975849293	0,00012070821	0,00039038158815134701	-1,456566192755432E-005	0,044102816701261069
1	0	0	0	0	0	2	20871,70	-0,100000001	1,20005345	-8,2373372241854669E-006	-0,099981167794127552	0,000119982746	-0,00022885182818037795	8,5387694039653747E-006	0,044722050117592787