File: Experimentelles/Rohdaten/Batterietests/AlteZelle/Batterietest Li vs LATP/ECLab-Export/LATP vs Li Batterietest Probe1_02_GCPL_C01_loop2.mpt
EC-Lab ASCII FILE
Nb header lines : 3
mode	ox/red	error	control changes	Ns changes	counter inc.	Ns	time/s	control/V/mA	Ewe/V	dq/mA.h	<I>/mA	P/W	(Q-Qo)/mA.h	x	Capacity/mA.h
1	1	0	1	1	0	1	7823,03	0,100000001	1,21294248	0	0	0	0	0	0
1	1	0	1	0	0	1	7881,03	0,100000001	2,05884695	5,5562743371145594E-005	0,10001293927893808	0,000205911332	0,0016099509505857869	-6,0069434568430387E-005	0,0016099509505857869
1	1	0	1	0	0	1	7939,03	0,100000001	2,51288557	5,5562876453830131E-005	0,10001317882777315	0,000251321675	0,0032212739759005459	-0,00012019006308977283	0,0032212739759005459
1	1	0	1	0	0	1	7997,03	0,100000001	2,55390143	5,5562958466509978E-005	0,10001332645059864	0,00025542418	0,0048325944524383219	-0,00018031059651281917	0,0048325944524383219
1	1	0	1	0	0	1	8055,03	0,100000001	2,57511592	5,5562777654164365E-005	0,10001300098837259	0,000257545064	0,0064439154318145434	-0,00024043114869744394	0,0064439154318145434
1	1	0	1	0	0	1	8113,03	0,100000001	2,59214854	5,5562798744274515E-005	0,10001303895057134	0,000259248656	0,0080552372535442982	-0,00030055173231141165	0,0080552372535442982
1	1	0	1	0	0	1	8171,03	0,100000001	2,6079402	5,5562809370458125E-005	0,10001305807770206	0,000260828063	0,0096665598028414656	-0,00036067234307189766	0,0096665598028414656
1	1	0	1	0	0	1	8229,03	0,100000001	2,62352157	5,5562744085573485E-005	0,1000129405649083	0,000262386107	0,011277880863713373	-0,00042079289829723622	0,011277880863713373
1	1	0	1	0	0	1	8287,03	0,100000001	2,63940859	5,5562969138224922E-005	0,10001334565968579	0,000263976079	0,012889203500065194	-0,00048091351230584832	0,012889203500065194
1	1	0	1	0	0	1	8345,03	0,100000001	2,65592551	5,5563014943980512E-005	0,10001342811004685	0,000265628216	0,014500527857573152	-0,00054103419053311014	0,014500527857573152
1	1	0	1	0	0	1	8403,03	0,100000001	2,67335916	5,5562638049324352E-005	0,10001274969965754	0,000267369993	0,016111848613865325	-0,00060115473439416934	0,016111848613865325
1	1	0	1	0	0	1	8461,03	0,100000001	2,69172859	5,5562803406268358E-005	0,10001304734216035	0,000269207987	0,017723167262707795	-0,0006612751996234464	0,017723167262707795
1	1	0	1	0	0	1	8519,03	0,100000001	2,71141529	5,5562641605734822E-005	0,10001275610119648	0,000271176104	0,019334487201248259	-0,00072139571297308966	0,019334487201248259
1	1	0	1	0	0	1	8577,03	0,100000001	2,73253441	5,5562835530688365E-005	0,10001310516611707	0,000273289246	0,020945805743806541	-0,00078151617423676083	0,020945805743806541
1	1	0	1	0	0	1	8635,03	0,100000001	2,75535274	5,5562780778027238E-005	0,10001300661132586	0,000275571103	0,022557125875517789	-0,0008416366947938656	0,022557125875517789
1	1	0	1	0	0	1	8693,03	0,100000001	2,78067255	5,556280249067479E-005	0,1000130456940919	0,000278103544	0,024168446405409587	-0,0009017572302076224	0,024168446405409587
1	1	0	1	0	0	1	8751,03	0,100000001	2,80891395	5,5562858767807482E-005	0,100013146992932	0,000280928332	0,025779768225912067	-0,00096187781377579878	0,025779768225912067
1	1	0	1	0	0	1	8809,03	0,100000001	2,84156632	5,5562842734571962E-005	0,1000131181331077	0,000284193899	0,027391091071079642	-0,0010219984355756075	0,027391091071079642
1	1	0	1	0	0	1	8867,03	0,100000001	2,87914515	5,5562858351816736E-005	0,10001314624414864	0,000287952367	0,029002415194709306	-0,0010821191050765558	0,029002415194709306
1	1	0	1	0	0	1	8925,03	0,100000001	2,92344522	5,5562850024137235E-005	0,10001313125432534	0,000292382902	0,030613738837140755	-0,0011422397566233518	0,030613738837140755
1	1	0	1	0	0	1	8983,03	0,100000001	2,97651005	5,5562749799754886E-005	0,10001295085043494	0,000297689548	0,032225062708991718	-0,0012023604167300982	0,032225062708991718
1	1	0	1	0	0	1	9041,03	0,100000001	3,04177642	5,556289949516455E-005	0,1000132203021756	0,000304217858	0,033836383893956358	-0,001262480976585503	0,033836383893956358
1	1	0	1	0	0	1	9099,03	0,100000001	3,12413263	5,5562769669625491E-005	0,10001298661620246	0,000312453834	0,035447705072544544	-0,0013226015362029942	0,035447705072544544
1	1	0	1	0	0	1	9157,03	0,100000001	3,23114061	5,5562874338279168E-005	0,10001317501978134	0,000323156622	0,037059027625478867	-0,0013827221470991872	0,037059027625478867
1	1	0	1	0	0	1	9215,03	0,100000001	3,37374139	5,5562805849644877E-005	0,10001305174023814	0,000337418169	0,038670349296202752	-0,0014428427250789229	0,038670349296202752
1	1	0	1	0	0	1	9273,03	0,100000001	3,56421304	5,5562796502063674E-005	0,10001303491459178	0,000356467761	0,040281669622978483	-0,0015029632529141462	0,040281669622978483
1	1	0	1	0	0	1	9331,03	0,100000001	3,81036544	5,5562891587201088E-005	0,1000132060678412	0,000381086866	0,04189299160787223	-0,0015630838426159818	0,04189299160787223
1	1	0	1	0	0	1	9389,03	0,100000001	4,10183048	5,5562726443840397E-005	0,10001290880978837	0,000410236011	0,043504313320722925	-0,0016232044221675254	0,043504313320722925
1	1	0	1	0	0	1	9447,03	0,100000001	4,35059309	5,5562677053113779E-005	0,10001281990647934	0,000435115071	0,04511563246090471	-0,0016833249057293331	0,04511563246090471
1	0	0	0	0	0	2	9502,22	-0,100000001	4,38975668	-5,5544825721118182E-005	-0,099980687508498266	0,000438890886	0,046537590441181926	-0,0017363800698163139	5,5550309659706227E-005
1	0	0	0	0	0	2	9560,22	-0,100000001	2,74975228	-5,5545273233619002E-005	-0,099981493031009472	0,000274924329	0,044926776516621818	-0,0016762784365286205	0,0016663642342198227
1	0	0	0	0	0	2	9618,22	-0,100000001	2,46523809	-5,554538567198647E-005	-0,09998169542007337	0,000246478681	0,043315962023349779	-0,0016161767820215206	0,0032771787274918618
1	0	0	0	0	0	2	9676,22	-0,100000001	2,41685152	-5,5545484751049018E-005	-0,099981873762388122	0,000241641348	0,041705142982750394	-0,0015560749578475235	0,0048879977680912461
1	0	0	0	0	0	2	9734,22	-0,100000001	2,40149927	-5,5545519788646035E-005	-0,099981936830063526	0,000240106543	0,040094323670189933	-0,0014959731235262931	0,0064988170806517222
1	0	0	0	0	0	2	9792,22	-0,100000001	2,38788462	-5,5545513109200531E-005	-0,099981924807061453	0,000238745299	0,038483504542453946	-0,001435871296101112	0,008109636208387712
1	0	0	0	0	0	2	9850,22	-0,100000001	2,37302876	-5,5545520222849312E-005	-0,099981937611629414	0,000237260014	0,036872683149981523	-0,0013757693841755696	0,0097204576008601331
1	0	0	0	0	0	2	9908,22	-0,100000001	2,35622525	-5,5545697287138963E-005	-0,09998225632735465	0,000235580723	0,035261862258026285	-0,0013156674909249963	0,011331278492815382
1	0	0	0	0	0	2	9966,22	-0,100000001	2,33713031	-5,5545294375883206E-005	-0,099981531087085517	0,000233669867	0,033651044482959347	-0,0012555657139697162	0,012942096267882326
1	0	0	0	0	0	2	10024,22	-0,100000001	2,31564856	-5,5545335341244934E-005	-0,09998160482473751	0,000231522252	0,032040230446295322	-0,0011954640764992752	0,014552910304546365
1	0	0	0	0	0	2	10082,22	-0,100000001	2,29262018	-5,5545381972359283E-005	-0,099981688760744358	0,000229220037	0,030429414622211341	-0,0011353623723377925	0,016163726128630346
1	0	0	0	0	0	2	10140,22	-0,100000001	2,26760578	-5,5545397815605005E-005	-0,099981717278586995	0,000226719116	0,028818598679670163	-0,0010752606637565123	0,017774542071171523
1	0	0	0	0	0	2	10198,22	-0,100000001	2,24081564	-5,5545487637321152E-005	-0,099981878957678029	0,000224040952	0,027207780254493293	-0,0010151588625447568	0,019385360496348397
1	0	0	0	0	0	2	10256,22	-0,100000001	2,21173406	-5,5545212691856755E-005	-0,099981384055836109	0,000221132228	0,025596961188826022	-0,00095505703743544307	0,020996179562015667
1	0	0	0	0	0	2	10314,22	-0,100000001	2,17980742	-5,5545323207560512E-005	-0,099981582984105293	0,0002179406	0,023986145273937261	-0,00089495532988591181	0,022606995476904426
1	0	0	0	0	0	2	10372,22	-0,100000001	2,14425278	-5,5545391649007802E-005	-0,099981706178711898	0,000214386047	0,022375330510496406	-0,00083485366529845005	0,02421781024034528
1	0	0	0	0	0	2	10430,22	-0,100000001	2,10396242	-5,554509431786007E-005	-0,099981170982639501	0,000210356622	0,020764519144043882	-0,00077475212745719027	0,025828621606797805
1	0	0	0	0	0	2	10488,22	-0,100000001	2,05817294	-5,5545184745970701E-005	-0,099981333753240614	0,000205778881	0,019153708808979376	-0,0007146506280984041	0,027439431941862314
1	0	0	0	0	0	2	10546,22	-0,100000001	2,0052228	-5,554514004538457E-005	-0,099981253292184602	0,00020048469	0,017542899185015248	-0,00065454915527172915	0,029050241565826445
1	0	0	0	0	0	2	10604,22	-0,100000001	1,94308782	-5,5545039974566963E-005	-0,09998107316471072	0,000194272012	0,015932092826017232	-0,00059444780426532966	0,030661047924824454
1	0	0	0	0	0	2	10662,22	-0,100000001	1,86966789	-5,554502524352736E-005	-0,09998104664883913	0,000186931356	0,014321288020586133	-0,00053434651122460064	0,032271852730255558
1	0	0	0	0	0	2	10720,22	-0,100000001	1,78439581	-5,5545265579803123E-005	-0,099981479254140723	0,000178406539	0,012710478817293786	-0,00047424505409375552	0,033882661933547904
1	0	0	0	0	0	2	10778,22	-0,100000001	1,68584704	-5,5545343618426054E-005	-0,099981619723663718	0,000168553714	0,01109966869522772	-0,00041414356268222752	0,035493472055613997
1	0	0	0	0	0	2	10836,22	-0,100000001	1,57570755	-5,5545316080666253E-005	-0,099981570155695462	0,000157541712	0,0094888560404344576	-0,00035404197677124262	0,037104284710407277
1	0	0	0	0	0	2	10894,22	-0,100000001	1,46276116	-5,5545065702663526E-005	-0,099981119475285107	0,000146248494	0,0078780450008360051	-0,00029394045112534771	0,038715095750005709
1	0	0	0	0	0	2	10952,22	-0,100000001	1,35350013	-5,5545006307462848E-005	-0,099981012563922586	0,000135324313	0,0062672388737944294	-0,00023383910877355485	0,040325901877047264
1	0	0	0	0	0	2	11010,22	-0,100000001	1,27496278	-5,5545166125728026E-005	-0,099981300236803392	0,000127472435	0,0046564307820537869	-0,00017373769311619827	0,04193670996878791
1	0	0	0	0	0	2	11068,22	-0,100000001	1,23684931	-5,5545306292259027E-005	-0,099981552536562253	0,000123662117	0,0030456181613895642	-0,00011363610847861368	0,043547522589452147
1	0	0	0	0	0	2	11126,22	-0,100000001	1,21372545	-5,5545328857170214E-005	-0,09998159315340288	0,000121350204	0,0014348033622426299	-5,3534442558910138E-005	0,045158337388599072
1	0	0	0	0	0	2	11168,96	-0,100000001	1,19993889	-2,0690651047146982E-005	-0,099981670701004134	0,000119971897	0,00024765940416289792	-9,2405053509280435E-006	0,046345481346678803