File: Experimentelles/Rohdaten/Batterietests/AlteZelle/Batterietest Li vs LATP/ECLab-Export/LATP vs Li Batterietest Probe1_02_GCPL_C01_loop10.mpt
EC-Lab ASCII FILE
Nb header lines : 3
mode	ox/red	error	control changes	Ns changes	counter inc.	Ns	time/s	control/V/mA	Ewe/V	dq/mA.h	<I>/mA	P/W	(Q-Qo)/mA.h	x	Capacity/mA.h
1	1	0	1	1	0	1	33563,52	0,100000001	1,21208322	0	0	0	0	0	0
1	1	0	1	0	0	1	33619,52	0,100000001	2,13589501	5,5563021346926694E-005	0,1000134382381785	0,000213618201	0,0015543950107451094	-5,7996567757219174E-005	0,0015543950107451094
1	1	0	1	0	0	1	33675,52	0,100000001	2,51762128	5,5563109919842746E-005	0,1000135976694271	0,000251796358	0,0031101611814620576	-0,00011604429533653184	0,0031101611814620576
1	1	0	1	0	0	1	33731,52	0,100000001	2,55277491	5,5563169661495418E-005	0,10001370520440171	0,00025531248	0,0046659284975538624	-0,00017409206565132038	0,0046659284975538624
1	1	0	1	0	0	1	33787,52	0,100000001	2,57259536	5,5563092396077184E-005	0,10001356612664914	0,00025729445	0,0062216970162517466	-0,00023213988083695866	0,0062216970162517466
1	1	0	1	0	0	1	33843,52	0,100000001	2,58895969	5,5563154027279878E-005	0,10001367706281379	0,000258931366	0,0077774657142594432	-0,00029018770271288717	0,0077774657142594432
1	1	0	1	0	0	1	33899,52	0,100000001	2,60415936	5,5563231757117645E-005	0,1000138169765215	0,000260451925	0,0093332349293105267	-0,00034823554388039955	0,0093332349293105267
1	1	0	1	0	0	1	33955,52	0,100000001	2,61930156	5,5563161922825709E-005	0,10001369127479627	0,000261966023	0,010889004053678525	-0,0004062833816644041	0,010889004053678525
1	1	0	1	0	0	1	34011,52	0,100000001	2,63522673	5,5563160345786144E-005	0,10001368843612506	0,000263558759	0,012444772097596024	-0,0004643311791353479	0,012444772097596024
1	1	0	1	0	0	1	34067,52	0,100000001	2,65161014	5,5563078403472896E-005	0,10001354093996149	0,000265196926	0,014000537706335555	-0,00052237888574652755	0,014000537706335555
1	1	0	1	0	0	1	34123,52	0,100000001	2,66898656	5,5563167456537485E-005	0,10001370123547742	0,000266935211	0,015556304737438931	-0,00058042664542801446	0,015556304737438931
1	1	0	1	0	0	1	34179,52	0,100000001	2,68762326	5,5563168521556589E-005	0,10001370315251182	0,000268799165	0,017112073573855226	-0,00063847447246815398	0,017112073573855226
1	1	0	1	0	0	1	34235,52	0,100000001	2,70746279	5,5563167779395974E-005	0,10001370181662272	0,000270783377	0,018667842087802128	-0,00069652228747652672	0,018667842087802128
1	1	0	1	0	0	1	34291,52	0,100000001	2,72896361	5,5563090873261293E-005	0,10001356338558056	0,000272933365	0,02022360818285967	-0,00075457001223288512	0,02022360818285967
1	1	0	1	0	0	1	34347,52	0,100000001	2,75206852	5,5563126051177581E-005	0,10001362670582974	0,000275244354	0,021779372449966109	-0,00081261766878593037	0,021779372449966109
1	1	0	1	0	0	1	34403,52	0,100000001	2,77761745	5,5562961592856384E-005	0,10001333068085213	0,000277798768	0,023335139288405334	-0,00087066542127885901	0,023335139288405334
1	1	0	1	0	0	1	34459,52	0,100000001	2,80664182	5,5562975674453709E-005	0,1000133560277273	0,000280701672	0,024890903760553402	-0,00092871308548228288	0,024890903760553402
1	1	0	1	0	0	1	34515,52	0,100000001	2,84011507	5,5563041009422803E-005	0,10001347363067144	0,000284049776	0,026446667909587181	-0,0009867607376298784	0,026446667909587181
1	1	0	1	0	0	1	34571,52	0,100000001	2,87912607	5,5563071625514163E-005	0,10001352873963578	0,000287951552	0,028002433193700768	-0,0010448084321288274	0,028002433193700768
1	1	0	1	0	0	1	34627,52	0,100000001	2,92535472	5,556299846950505E-005	0,10001339705881962	0,000292574667	0,029558196781079142	-0,001102856063320305	0,029558196781079142
1	1	0	1	0	0	1	34683,52	0,100000001	2,98172283	5,5563033069173498E-005	0,1000134593382227	0,000298212428	0,031113960493497715	-0,0011609036991771998	0,031113960493497715
1	1	0	1	0	0	1	34739,52	0,100000001	3,05168653	5,5563042954438259E-005	0,10001347713169925	0,000305209775	0,032669727033027923	-0,001218951440517431	0,032669727033027923
1	1	0	1	0	0	1	34795,52	0,100000001	3,14160466	5,5563049193471674E-005	0,10001348836195938	0,000314202829	0,034225493659287872	-0,0012769991850936656	0,034225493659287872
1	1	0	1	0	0	1	34851,52	0,100000001	3,26100492	5,5563160128477542E-005	0,10001368804496957	0,00032614512	0,035781260947711104	-0,0013350469543761027	0,035781260947711104
1	1	0	1	0	0	1	34907,52	0,100000001	3,4225862	5,5563061621040109E-005	0,10001351073158251	0,000342304847	0,037337027874288205	-0,0013930947101575736	0,037337027874288205
1	1	0	1	0	0	1	34963,52	0,100000001	3,64030623	5,5563001970036166E-005	0,10001340335977562	0,000364079402	0,038892792694274477	-0,0014511423873393085	0,038892792694274477
1	1	0	1	0	0	1	35019,52	0,100000001	3,92793274	5,556300176887049E-005	0,10001340299767741	0,000392845919	0,040448556223253139	-0,0015091900163518141	0,040448556223253139
1	1	0	1	0	0	1	35075,52	0,100000001	4,25954866	5,5563158130066259E-005	0,10001368444782928	0,000426013168	0,042004322157925754	-0,0015672377351239955	0,042004322157925754
1	1	0	1	0	0	1	35129,74	0,100000001	4,49997234	6,3008199387954342E-006	0,10001301466873603	0,000450055813	0,043510828292403923	-0,001623447504520416	0,043510828292403923
1	0	0	0	0	0	2	35183,75	-0,100000001	2,81446481	-5,5544995211478733E-005	-0,099980991194432614	0,000281392975	0,042011112602002227	-0,0015674910957223379	0,0014997156904016934
1	0	0	0	0	0	2	35239,75	-0,100000001	2,46798778	-5,5544933501217094E-005	-0,099980880115961869	0,000246751588	0,040455854168142016	-0,0015094623124878093	0,0030549741242619034
1	0	0	0	0	0	2	35295,75	-0,100000001	2,41963959	-5,5544928693936934E-005	-0,0999808714628576	0,000241917674	0,038900595176783827	-0,0014514335084522819	0,0046102331156200838
1	0	0	0	0	0	2	35351,75	-0,100000001	2,4049747	-5,5544834330677984E-005	-0,099980701608991808	0,00024045106	0,037345340576496934	-0,0013934048682535283	0,0061654877159069811
1	0	0	0	0	0	2	35407,75	-0,100000001	2,39166546	-5,5544944171690278E-005	-0,099980899322813568	0,000239120869	0,035790084186409203	-0,0013353761612748989	0,0077207441059946995
1	0	0	0	0	0	2	35463,75	-0,100000001	2,3773253	-5,5544831964290803E-005	-0,099980697349494886	0,000237686647	0,03423482825559017	-0,0012773474714322026	0,0092760000368137267
1	0	0	0	0	0	2	35519,75	-0,100000001	2,36067438	-5,5544966053631571E-005	-0,099980938710307814	0,000236022446	0,032679572507112499	-0,0012193187883929075	0,010831255785291389
1	0	0	0	0	0	2	35575,75	-0,100000001	2,34165597	-5,5544882951925197E-005	-0,099980789127236634	0,000234120613	0,03112431487793984	-0,0011612900351823534	0,012386513414464061
1	0	0	0	0	0	2	35631,75	-0,100000001	2,32026958	-5,5544811468985344E-005	-0,099980660457945126	0,000231982092	0,029569058364059059	-0,0011032613235848389	0,013941769928344829
1	0	0	0	0	0	2	35687,75	-0,100000001	2,29710746	-5,5544765304360122E-005	-0,099980577361619891	0,000229666126	0,028013805198286666	-0,0010452327369097501	0,015497023094117222
1	0	0	0	0	0	2	35743,75	-0,100000001	2,27207398	-5,5544665457887782E-005	-0,09998039763797001	0,000227162862	0,026458552785048166	-0,0009872041783127127	0,017052275507355718
1	0	0	0	0	0	2	35799,75	-0,100000001	2,24492121	-5,5544930101268819E-005	-0,099980873996054989	0,000224449192	0,024903297691581267	-0,00092917551971274995	0,018607530600822618
1	0	0	0	0	0	2	35855,75	-0,100000001	2,21566772	-5,5544738882117798E-005	-0,099980529801583782	0,000221523631	0,023348041680276922	-0,00087114682686703821	0,020162786612126966
1	0	0	0	0	0	2	35911,75	-0,100000001	2,18337822	-5,5544705454674029E-005	-0,099980469632185126	0,000218295187	0,021792788906544566	-0,0008131182548194903	0,021718039385859322
1	0	0	0	0	0	2	35967,75	-0,100000001	2,14721251	-5,5544533814407053E-005	-0,099980160679705139	0,000214678657	0,020237540610276272	-0,00075508984983214656	0,023273287682127616
1	0	0	0	0	0	2	36023,75	-0,100000001	2,10663581	-5,554451653402713E-005	-0,099980129575021325	0,000210621714	0,018682292713526339	-0,00069706145975136986	0,024828535578877549
1	0	0	0	0	0	2	36079,75	-0,100000001	2,05977678	-5,5544461150550182E-005	-0,099980029884763008	0,000205936551	0,017127045011621494	-0,0006390330769405257	0,02638378328078239
1	0	0	0	0	0	2	36135,75	-0,100000001	2,00562382	-5,5544555875162278E-005	-0,099980200389064486	0,000200522671	0,015571797560261472	-0,00058100470347784538	0,027939030732142416
1	0	0	0	0	0	2	36191,75	-0,100000001	1,94219041	-5,5544537851793901E-005	-0,099980167947001446	0,000194180524	0,014016551198363005	-0,00052297637066444077	0,029494277094040877
1	0	0	0	0	0	2	36247,75	-0,100000001	1,86655545	-5,5544586632400755E-005	-0,099980255752093619	0,000186618694	0,012461304953619123	-0,00046494804222223104	0,031049523338784749
1	0	0	0	0	0	2	36303,75	-0,100000001	1,777789	-5,5544566731899974E-005	-0,099980219931192282	0,000177743728	0,010906056524266501	-0,00040691963226933203	0,03260477176813737
1	0	0	0	0	0	2	36359,75	-0,100000001	1,67374086	-5,5544467065483328E-005	-0,09998004053164265	0,00016734068	0,0093508092977144947	-0,00034889126719454125	0,034160018994689376
1	0	0	0	0	0	2	36415,75	-0,100000001	1,55846488	-5,5544510135220154E-005	-0,099980118057168806	0,000155815505	0,007795563974921193	-0,00029086297315154726	0,035715264317482694
1	0	0	0	0	0	2	36471,75	-0,100000001	1,43677306	-5,5544507238599987E-005	-0,099980112843252506	0,000143648736	0,0062403146234184819	-0,00023283452879198861	0,037270513668985408
1	0	0	0	0	0	2	36527,75	-0,100000001	1,31951118	-5,5544583958884077E-005	-0,09998025093976361	0,000131925059	0,0046850667252450643	-0,00017480613865809994	0,038825761567158816
1	0	0	0	0	0	2	36583,75	-0,100000001	1,2505213	-5,5544503127949101E-005	-0,099980105444080922	0,000125027247	0,0031298212479312666	-0,00011677783884973853	0,040381007044472608
1	0	0	0	0	0	2	36639,75	-0,100000001	1,22023678	-5,5544725975228678E-005	-0,099980506569183424	0,000121999889	0,0015745722019218182	-5,874940588854423E-005	0,041936256090482067
1	0	0	0	0	0	2	36695,75	-0,100000001	1,20037806	-5,5544776090317306E-005	-0,099980596776342771	0,000120014513	1,9318924429625658E-005	-7,2081504503948134E-007	0,043491509367974259
1	0	0	0	0	0	2	36696,74	-0,100000001	1,19995797	-2,7644638264758717E-005	-0,099980608375636224	0,00011997253	-8,3257138351330624E-006	3,1064357723012013E-007	0,043519154006239021