File: Experimentelles/Rohdaten/Batterietests/AlteZelle/Studenten_Batterietests/S vs Li GCPL 200µm/ZView-Export/S vs Li GCPL 200µm_01_OCV_C05_loop0.txt
EC-Lab ASCII FILE
Nb header lines : 3
mode	error	time/s	Ewe/V
3	1	0,00	2,18191576
3	0	15,00	2,18029666
3	0	30,00	2,18083
3	0	45,00	2,1813252
3	0	60,00	2,18048716
3	0	75,00	2,18460107
3	0	90,00	2,18191576
3	0	105,00	2,18046808
3	0	120,00	2,17959213
3	0	135,00	2,17949677
3	0	150,00	2,17905879
3	0	165,00	2,17888737
3	0	180,00	2,17844939
3	0	195,00	2,17877316
3	0	210,00	2,18003011
3	0	225,00	2,18001103
3	0	240,00	2,17961121
3	0	255,00	2,17892551
3	0	270,00	2,17883015
3	0	285,00	2,18043017
3	0	300,00	2,17820168
3	0	315,00	2,1780684
3	0	330,00	2,17726851
3	0	345,00	2,17702079
3	0	360,00	2,17703986
3	0	375,00	2,17719221
3	0	390,00	2,17677331
3	0	405,00	2,17637324
3	0	420,00	2,17660189
3	0	435,00	2,17665911
3	0	450,00	2,17412591
3	0	465,00	2,17635417
3	0	480,00	2,17524958
3	0	495,00	2,17574477
3	0	510,00	2,17850637
3	0	525,00	2,17662096
3	0	540,00	2,17865872
3	0	555,00	2,1771543
3	0	570,00	2,1771543
3	0	585,00	2,18023968
3	0	600,00	2,18077302
3	0	615,00	2,18027782
3	0	630,00	2,17974448
3	0	645,00	2,17938256
3	0	660,00	2,17943978
3	0	675,00	2,17921114
3	0	690,00	2,17917299
3	0	705,00	2,17879224
3	0	720,00	2,1789825
3	0	735,00	2,1778779
3	0	750,00	2,17841125
3	0	765,00	2,17673516
3	0	780,00	2,17355442
3	0	795,00	2,17250705
3	0	810,00	2,1757257
3	0	825,00	2,17610669
3	0	840,00	2,17677331
3	0	855,00	2,17286897
3	0	870,00	2,1718595
3	0	885,00	2,17315459
3	0	900,00	2,17424011
3	0	915,00	2,17639232
3	0	930,00	2,17968726
3	0	945,00	2,18027782
3	0	960,00	2,19631433
3	0	975,00	2,20229459
3	0	990,00	2,20237088
3	0	1005,00	2,20480871
3	0	1020,00	2,20391369
3	0	1035,00	2,20288515
3	0	1050,00	2,20202804
3	0	1065,00	2,20160913
3	0	1080,00	2,202847
3	0	1095,00	2,20444679
3	0	1110,00	2,20507526
3	0	1125,00	2,20429444
3	0	1140,00	2,20459914
3	0	1155,00	2,20499921
3	0	1170,00	2,2059896
3	0	1185,00	2,20326614
3	0	1200,00	2,20269465
3	0	1215,00	2,20269465
3	0	1230,00	2,20829415
3	0	1245,00	2,20244718
3	0	1260,00	2,20301843
3	0	1275,00	2,20347548
3	0	1290,00	2,20393252
3	0	1305,00	2,20753241
3	0	1320,00	2,20494199
3	0	1335,00	2,20848465
3	0	1350,00	2,20259953
3	0	1365,00	2,20383739
3	0	1380,00	2,20389462
3	0	1395,00	2,20452309
3	0	1410,00	2,20478964
3	0	1425,00	2,20402789
3	0	1440,00	2,20351362
3	0	1455,00	2,20459914
3	0	1470,00	2,20381832
3	0	1485,00	2,20166612
3	0	1500,00	2,20299935
3	0	1515,00	2,20842743
3	0	1530,00	2,20498013
3	0	1545,00	2,2054944
3	0	1560,00	2,20473266
3	0	1575,00	2,20543718
3	0	1590,00	2,20475149
3	0	1605,00	2,20555162
3	0	1620,00	2,20534205
3	0	1635,00	2,20665622
3	0	1650,00	2,20798945
3	0	1665,00	2,21202707
3	0	1680,00	2,20856071
3	0	1695,00	2,20589447
3	0	1710,00	2,20398974
3	0	1725,00	2,20358992
3	0	1740,00	2,20317078
3	0	1755,00	2,20307565
3	0	1770,00	2,20238996
3	0	1785,00	2,20216131
3	0	1800,00	2,20235181
3	0	1815,00	2,20092344
3	0	1830,00	2,20117092
3	0	1845,00	2,20139956
3	0	1860,00	2,20073295
3	0	1875,00	2,20096159
3	0	1890,00	2,20170426
3	0	1905,00	2,20193291
3	0	1920,00	2,20250416
3	0	1935,00	2,20216131
3	0	1950,00	2,20042825
3	0	1965,00	2,20092344
3	0	1980,00	2,20033288
3	0	1995,00	2,20033288
3	0	2010,00	2,20136142
3	0	2025,00	2,20143771
3	0	2040,00	2,2030375
3	0	2055,00	2,2031517
3	0	2070,00	2,20343733
3	0	2085,00	2,20625615
3	0	2100,00	2,2118175
3	0	2115,00	2,2104845
3	0	2130,00	2,21716952
3	0	2145,00	2,20899892
3	0	2160,00	2,20471358
3	0	2175,00	2,20256138
3	0	2190,00	2,20625615
3	0	2205,00	2,21012259
3	0	2220,00	2,21223664
3	0	2235,00	2,21164608
3	0	2250,00	2,20743704
3	0	2265,00	2,20566583
3	0	2280,00	2,20591331
3	0	2295,00	2,20513248
3	0	2310,00	2,20440888
3	0	2325,00	2,20393252
3	0	2340,00	2,20827508
3	0	2355,00	2,20856071
3	0	2370,00	2,21044636
3	0	2385,00	2,20888448
3	0	2400,00	2,20823693
3	0	2415,00	2,20816088
3	0	2430,00	2,20736098
3	0	2445,00	2,20808458
3	0	2460,00	2,22132158
3	0	2475,00	2,22040725
3	0	2490,00	2,21880746
3	0	2505,00	2,21939778
3	0	2520,00	2,219455
3	0	2535,00	2,22495914
3	0	2550,00	2,21176052
3	0	2565,00	2,21122718
3	0	2580,00	2,21155095
3	0	2595,00	2,2104845
3	0	2610,00	2,21136045
3	0	2625,00	2,21214128
3	0	2640,00	2,21383643
3	0	2655,00	2,21358895
3	0	2670,00	2,21339846
3	0	2685,00	2,21713138
3	0	2700,00	2,21488404
3	0	2715,00	2,21197009
3	0	2730,00	2,21212244
3	0	2745,00	2,2118175
3	0	2760,00	2,21379828
3	0	2775,00	2,21490312
3	0	2790,00	2,21379828
3	0	2805,00	2,18978167
3	0	2820,00	2,19665718
3	0	2835,00	2,19800949
3	0	2850,00	2,19646668
3	0	2865,00	2,19355273
3	0	2880,00	2,19532394
3	0	2895,00	2,19604754
3	0	2910,00	2,19667625
3	0	2925,00	2,19604754
3	0	2940,00	2,19970441
3	0	2955,00	2,20096159
3	0	2970,00	2,20029497
3	0	2985,00	2,20357084
3	0	3000,00	2,2061038
3	0	3015,00	2,20663714
3	0	3030,00	2,20389462
3	0	3045,00	2,20440888
3	0	3060,00	2,20509434
3	0	3075,00	2,20541811
3	0	3090,00	2,2080276
3	0	3105,00	2,20002818
3	0	3120,00	2,1999712
3	0	3135,00	2,19846654
3	0	3150,00	2,19303846
3	0	3165,00	2,19336224
3	0	3180,00	2,18812466
3	0	3195,00	2,18231559
3	0	3210,00	2,18328691
3	0	3225,00	2,18410587
3	0	3240,00	2,18296313
3	0	3255,00	2,18239188
3	0	3270,00	2,18313456
3	0	3285,00	2,18155384
3	0	3300,00	2,18187761
3	0	3315,00	2,18296313
3	0	3330,00	2,18098235
3	0	3345,00	2,18033481
3	0	3360,00	2,18050623
3	0	3375,00	2,18079185
3	0	3390,00	2,17873502
3	0	3405,00	2,17909694
3	0	3420,00	2,18111563
3	0	3435,00	2,17980146
3	0	3450,00	2,17875409
3	0	3465,00	2,17843032
3	0	3480,00	2,18315363
3	0	3495,00	2,18762946
3	0	3510,00	2,18778181
3	0	3525,00	2,18307734
3	0	3540,00	2,18296313
3	0	3555,00	2,17995405
3	0	3570,00	2,18382025
3	0	3585,00	2,18185854
3	0	3600,00	2,17934442