File: Experimentelles/Rohdaten/Batterietests/AlteZelle/Studenten_Batterietests/S vs Li GCPL 200µm/ZView-Export/S vs Li GCPL 200µm_02_GCPL_C05_loop9.txt
EC-Lab ASCII FILE
Nb header lines : 3
mode	ox/red	error	control changes	Ns changes	counter inc.	Ns	time/s	control/V/mA	Ewe/V	dq/mA.h	<I>/mA	P/W	(Q-Qo)/mA.h	x	Capacity/mA.h
1	0	0	1	1	0	1	138742,22	-0,200000003	3,05032945	0	0	0	0	0	0
1	0	0	1	0	0	1	138772,22	-0,200000003	1,5367763	-0,00055477289654148954	-0,19971821150658698	0,000306922215	-0,0016615755162697462	6,1995616524065677E-005	0,0016615755162697462
1	0	0	1	0	0	1	138802,22	-0,200000003	1,66600227	-0,00055477218073854842	-0,19971795381756848	0,00033273056	-0,0033258934159083258	0,00012409355505879621	0,0033258934159083258
1	0	0	1	0	0	1	138832,22	-0,200000003	1,62806296	-0,00055477506170173485	-0,19971899096415331	0,000325155095	-0,0049902144263323565	0,0001861916096611144	0,0049902144263323565
1	0	0	1	0	0	1	138862,22	-0,200000003	1,57014465	-0,00055477029067277914	-0,19971727339516051	0,000313585013	-0,0066545257273741645	0,00024828930199332742	0,0066545257273741645
1	0	0	1	0	0	1	138892,22	-0,200000003	1,52372992	-0,00055477811496704819	-0,19972009013949411	0,000304319488	-0,0083188430026102157	0,00031038721723076006	0,0083188430026102157
1	1	0	0	1	0	2	138903,40	0,200000003	2,32379127	9,8259664244121971E-009	0,058955807185154714	0,000137000985	-0,0089390834743615424	0,00033352922315398554	9,8259664244121971E-009
1	1	0	0	0	0	2	138933,40	0,200000003	2,4418149	0,00055613249291396806	0,20020766612409811	0,000488870079	-0,0072707264201602778	0,00027128057833182013	0,0016683668801676896
1	1	0	0	0	0	2	138963,40	0,200000003	2,4743073	0,00055614181193129888	0,20021102096981229	0,000495383574	-0,0056023119021889005	0,00020902978945913107	0,0033367813981390656
1	1	0	0	0	0	2	138993,40	0,200000003	2,40539932	0,0005561341565325856	0,20020826502670672	0,000481580821	-0,0039339101476324704	0,00014677947680661421	0,0050051831526954957
1	1	0	0	0	0	2	139023,40	0,200000003	2,40330434	0,00055613185195542048	0,20020743537905709	0,000481159397	-0,0022655161982057594	8,4529455373981299E-005	0,0066735771021222067
1	1	0	0	0	0	2	139053,40	0,200000003	2,39246726	0,00055613447211020525	0,200208378634632	0,000478991977	-0,00059711695825256614	2,2279236544692134E-005	0,0083419763420753997
1	1	0	0	0	0	2	139083,40	0,200000003	2,40557075	0,00055613487497468787	0,20020852366582307	0,000481615774	0,0010712825053620896	-3,9970990629706912E-005	0,010010375805690058
1	1	0	0	0	0	2	139113,40	0,200000003	2,41004658	0,00055613768951098125	0,20020953689873014	0,000482514297	0,0027396895131970672	-0,00010222149928910947	0,011678782813525034
1	1	0	0	0	0	2	139143,40	0,200000003	2,39581943	0,00055613881454616787	0,20020994191133395	0,000479666865	0,0044081071838344371	-0,00016447240579200557	0,013347200484162403
1	1	0	0	0	0	2	139173,40	0,200000003	2,3829062	0,00055613238495091597	0,20020762725740544	0,000477075984	0,0060765174444215398	-0,0002267230358159633	0,015015610744749507
1	1	0	0	0	0	2	139203,40	0,200000003	2,41227484	0,00055613622479389114	0,20020900960066019	0,000482959149	0,0077449157609025869	-0,00028897322018926509	0,01668400906123055
1	1	0	0	0	0	2	139233,40	0,200000003	2,44754791	0,00055613755114542112	0,20020948708713629	0,000490022299	0,0094133236358146099	-0,00035122376120047802	0,018352416936142576
1	1	0	0	0	0	2	139263,40	0,200000003	2,45438528	0,00055613639569034176	0,2002090711233728	0,000491390179	0,011081720428774446	-0,00041347388872915501	0,020020813729102413
1	1	0	0	0	0	2	139293,40	0,200000003	2,49321961	0,00055613445415016678	0,20020837216901917	0,000499163463	0,012750136224387114	-0,0004757247252723584	0,021689229524715078
1	1	0	0	0	0	2	139323,40	0,200000003	2,54062486	0,00055614074943131878	0,2002106384698793	0,000508660101	0,014418548279797558	-0,00053797542226358822	0,023357641580125523
1	1	0	0	0	0	2	139353,40	0,200000003	2,60536146	0,00055613188961976109	0,20020744893821754	0,000521612761	0,016086945632224803	-0,00060022557066674637	0,025026038932552765
1	1	0	0	0	0	2	139383,40	0,200000003	2,6146369	0,00055613041076395245	0,20020691655020976	0,000523468363	0,017755333189634506	-0,00066247535360463066	0,026694426489962467
1	1	0	0	0	0	2	139413,40	0,200000003	2,63019729	0,00055613769700626528	0,20020953959703197	0,000526590564	0,019423725999661312	-0,00072472533252472115	0,028362819299989274
1	1	0	0	0	0	2	139443,40	0,200000003	2,74091077	0,00055612898533211821	0,2002064033948297	0,000548747892	0,021092104167057101	-0,00078697476510856115	0,030031197467385062
1	1	0	0	0	0	2	139473,40	0,200000003	2,78665876	0,00055612839555988717	0,20020619107685974	0,000557906344	0,022760491685866998	-0,00084922454660623488	0,031699584986194963
1	1	0	0	0	0	2	139503,40	0,200000003	2,77825952	0,00055612266227437382	0,20020412709439792	0,00055621902	0,024428860246755699	-0,00091147362075837926	0,033367953547083661
1	1	0	0	0	0	2	139533,40	0,200000003	2,90060997	0,0005561244848825865	0,20020478323325181	0,000580716005	0,026097232850450294	-0,0009737228457530473	0,035036326150778259
1	1	0	0	0	0	2	139563,40	0,200000003	2,94940543	0,00055612228597783379	0,20020399162766467	0,000590482727	0,027765611567033347	-0,0010359722988278026	0,036704704867361306
1	1	0	0	0	0	2	139593,40	0,200000003	3,00105762	0,0005561321754919159	0,20020755185217718	0,000600834377	0,029433994917110125	-0,0010982219247844384	0,038373088217438074
1	1	0	0	0	0	2	139623,40	0,200000003	2,96319461	0,0005561319199361735	0,20020745985212432	0,000593253644	0,031102391084568883	-0,0011604720289748293	0,040041484384896832
1	1	0	0	0	0	2	139653,40	0,200000003	3,00208616	0,00055612331390546426	0,20020436168155376	0,00060103077	0,032770768134726106	-0,0012227214198729962	0,041709861435054054
1	1	0	0	0	0	2	139683,40	0,200000003	3,03476882	0,00055612310753183232	0,20020428738705786	0,000607573718	0,034439138890035136	-0,0012849705759019136	0,043378232190363091
1	1	0	0	0	0	2	139713,40	0,200000003	3,01637053	0,00055612183424582086	0,20020382900416547	0,000603888941	0,036107504074015238	-0,0013472195240570581	0,045046597374343187
1	1	0	0	0	0	2	139743,40	0,200000003	3,09929609	0,00055612997496376429	0,20020675966216659	0,00062050001	0,037775887763261485	-0,0014094691626685629	0,046714981063589434
1	1	0	0	0	0	2	139773,40	0,200000003	3,1165514	0,00055613713684843642	0,20020933794024512	0,000623962667	0,039444286462497894	-0,0014717193613229818	0,04838337976282585
1	1	0	0	0	0	2	139803,40	0,200000003	3,13190246	0,00055613736532545754	0,20020942019195987	0,000627036381	0,041112694632856896	-0,001533969913357719	0,050051787933184851
1	1	0	0	0	0	2	139833,40	0,200000003	3,14687252	0,00055613396116097773	0,20020819469293888	0,000630029652	0,042781094286877766	-0,0015962201476364298	0,051720187587205715
1	1	0	0	0	0	2	139863,40	0,200000003	3,17883134	0,00055613352661993766	0,20020803825818893	0,000636427605	0,044449497522035917	-0,0016584705155321875	0,053388590822363872
1	1	0	0	0	0	2	139893,40	0,200000003	3,28737354	0,00055612269581937126	0,2002041391705951	0,000658145815	0,0461178765641456	-0,0017207199807527789	0,055056969864473555
1	1	0	0	0	0	2	139923,40	0,200000003	3,28520226	0,00055612460371686349	0,20020482601358483	0,000657713332	0,04778624547448144	-0,0017829690679432659	0,056725338774809389
1	1	0	0	0	0	2	139953,40	0,200000003	3,39492536	0,00055613459915998912	0,20020842437254704	0,000679692661	0,049454639420966835	-0,0018452190892661546	0,058393732721294784
1	1	0	0	0	0	2	139983,40	0,200000003	3,41250467	0,00055612822489854374	0,20020612963878573	0,000683204329	0,051123022161543891	-0,0019074686924815366	0,060062115461871846
1	1	0	0	0	0	2	139996,33	0,200000003	3,50108671	0,00016266759089214934	0,20020623439508275	0,000700939388	0,051841818275276678	-0,00193428794191656	0,060780911575604634