File: Experimentelles/Rohdaten/Batterietests/AlteZelle/Studenten_Batterietests/S vs Li GCPL 200µm/ZView-Export/S vs Li GCPL 200µm_02_GCPL_C05_loop0.txt
EC-Lab ASCII FILE
Nb header lines : 3
mode	ox/red	error	control changes	Ns changes	counter inc.	Ns	time/s	control/V/mA	Ewe/V	dq/mA.h	<I>/mA	P/W	(Q-Qo)/mA.h	x	Capacity/mA.h
1	0	0	1	1	0	1	3600,00	-0,200000003	2,17947769	0	0	0	0	0	0
1	0	0	1	0	0	1	4360,00	-0,200000003	2,14279556	-0,00055480582512666784	-0,19973009946377139	0,000427980762	-0,042163098721125523	0,0015731619021743382	0,042163098721125523
1	0	0	1	0	0	1	5120,00	-0,200000003	2,15024233	-0,00055480891652074118	-0,19973121236565126	0,0004294705	-0,084328630574596058	0,0031464145877878502	0,084328630574596058
1	0	0	1	0	0	1	5880,00	-0,200000003	2,1453476	-0,00055479558456606336	-0,19972641286190912	0,00042848257	-0,12649381431814488	0,0047196542849521446	0,12649381431814488
1	0	0	1	0	0	1	6640,00	-0,200000003	2,12611127	-0,00055479669999745158	-0,19972681441721376	0,000424641417	-0,16865887391318752	0,0062928893499687526	0,16865887391318752
1	0	0	1	0	0	1	7400,00	-0,200000003	2,09752369	-0,00055480092133747206	-0,19972833409963952	0,000418934913	-0,21082382016634234	0,0078661201860471373	0,21082382016634234
1	0	0	1	0	0	1	8160,00	-0,200000003	2,07194495	-0,00055480416568120314	-0,19972950206339683	0,000413828529	-0,25298905788137382	0,0094393618969600154	0,25298905788137382
1	0	0	1	0	0	1	8920,00	-0,200000003	1,996333	-0,00055479073067257798	-0,19972466546023325	0,000398716948	-0,29515481121120301	0,011012622846154248	0,29515481121120301
1	0	0	1	0	0	1	9680,00	-0,200000003	1,9456712	-0,00055478872545560205	-0,19972394358211315	0,000388597138	-0,33731852522625395	0,012585807705772214	0,33731852522625395
1	0	0	1	0	0	1	10440,00	-0,200000003	1,91108394	-0,0005547824392898215	-0,19972168056240477	0,000381684891	-0,37948222872449235	0,014158992172993766	0,37948222872449235
1	0	0	1	0	0	1	11200,00	-0,200000003	1,92009258	-0,00055479164361705389	-0,19972499412024854	0,000383490493	-0,42164613151813715	0,015732184076194886	0,42164613151813715
1	0	0	1	0	0	1	11960,00	-0,200000003	1,9232161	-0,0005547850173132288	-0,19972260865084262	0,000384109735	-0,46380982375398362	0,01730536812320145	0,46380982375398362
1	0	0	1	0	0	1	12720,00	-0,200000003	1,93407226	-0,00055478712878293459	-0,19972336877994589	0,000386279426	-0,5059736870465735	0,018878558552565101	0,5059736870465735
1	0	0	1	0	0	1	13480,00	-0,200000003	1,92483509	-0,00055479559885213779	-0,199726418004896	0,000384440413	-0,54813758696212986	0,020451750348380874	0,54813758696212986
1	0	0	1	0	0	1	14240,00	-0,200000003	1,9175024	-0,00055478131142258643	-0,19972127453019526	0,000382966013	-0,5903018116147415	0,022024954260572787	0,5903018116147415
1	0	0	1	0	0	1	15000,00	-0,200000003	1,96658349	-0,00055478769125044346	-0,19972357126825158	0,000392773072	-0,63246566646652557	0,023598144374998627	0,63246566646652557
1	0	0	1	0	0	1	15760,00	-0,200000003	1,91407418	-0,00055479249046246214	-0,1997252989845992	0,000382289028	-0,67462924268824525	0,025171324093362134	0,67462924268824525
1	0	0	1	0	0	1	16520,00	-0,200000003	1,90636063	-0,00055479027707046931	-0,19972450216347213	0,000380746933	-0,7167930606580713	0,026744512831672531	0,7167930606580713
1	0	0	1	0	0	1	17280,00	-0,200000003	1,91708338	-0,00055479584741261267	-0,19972650748666803	0,00038289238	-0,75895744755787597	0,028317722797525366	0,75895744755787597
1	0	0	1	0	0	1	18040,00	-0,200000003	1,91152203	-0,000554784229742984	-0,19972232512555107	0,000381773629	-0,8011213561702871	0,02989091491783248	0,8011213561702871
1	0	0	1	0	0	1	18800,00	-0,200000003	1,92447317	-0,00055479085792435533	-0,19972471127087363	0,000384364859	-0,84328495826134003	0,031464095601415597	0,84328495826134003
1	0	0	1	0	0	1	19560,00	-0,200000003	1,88655293	-0,0005547916667610407	-0,19972500245208387	0,000376791781	-0,8854485283142135	0,033037275089611162	0,8854485283142135
1	0	0	1	0	0	1	20320,00	-0,200000003	1,88061059	-0,00055478534900645421	-0,19972272806040518	0,000375600677	-0,9276124965669111	0,034610469435177562	0,9276124965669111
1	0	0	1	0	0	1	21080,00	-0,200000003	1,86644053	-0,00055478797406786016	-0,19972367308252282	0,000372772367	-0,96977626333397107	0,036183656263043898	0,96977626333397107
1	0	0	1	0	0	1	21840,00	-0,200000003	1,84920406	-0,00055478960019598406	-0,1997242584886545	0,000369330897	-1,0119401994369214	0,03775684940906	1,0119401994369214
1	0	0	1	0	0	1	22600,00	-0,200000003	1,82074964	-0,00055479090233478285	-0,19972472725862771	0,000363648724	-1,054104109747897	0,039330041592742835	1,054104109747897
1	0	0	1	0	0	1	23360,00	-0,200000003	1,69346631	-0,00055479591983639526	-0,19972653355923008	0,000338230166	-1,096268189263721	0,040903240089686067	1,096268189263721
1	1	0	0	0	0	2	24100,21	0,200000003	2,08419156	0,00055610740219801664	0,20019866721512998	0,000417252362	-1,0884545258888243	0,040611701803586528	0,024469074936495894
1	1	0	0	0	0	2	24860,21	0,200000003	2,06259346	0,00055611934977107584	0,20020296834148336	0,000412937341	-1,0461902884968578	0,039034766281620723	0,066733312328461965
1	1	0	0	0	0	2	25620,21	0,200000003	2,05937481	0,00055610748535643021	0,20019869715215923	0,000412284164	-1,0039254517091918	0,037457808395395482	0,10899814911612789
1	1	0	0	0	0	2	26380,21	0,200000003	2,05971766	0,00055611541458550432	0,20020155167466048	0,00041235867	-0,96166071427545741	0,035880854216199002	0,15126288654986186
1	1	0	0	0	0	2	27140,21	0,200000003	2,06745028	0,00055611435602108634	0,20020117059146538	0,000413905975	-0,91939593084070707	0,034303898320642771	0,19352766998461222
1	1	0	0	0	0	2	27900,21	0,200000003	2,06739306	0,00055611301377912358	0,20020068738435296	0,000413893518	-0,87713146474833549	0,032726954265557363	0,23579213607698358
1	1	0	0	0	0	2	28660,21	0,200000003	2,06887865	0,00055611295299894278	0,20020066550348762	0,000414190872	-0,83486689538934592	0,03115000635745559	0,27805670543597322
1	1	0	0	0	0	2	29420,21	0,200000003	2,07367826	0,00055611755162560282	0,20020232100910525	0,000415155198	-0,79260199523983565	0,029573046107114746	0,32032160558548358
1	1	0	0	0	0	2	30180,21	0,200000003	2,07501149	0,00055610621031042598	0,20019823813559219	0,00041541364	-0,75033745898344115	0,027996099434115302	0,36258614184187802
1	1	0	0	0	0	2	30940,21	0,200000003	2,07887769	0,00055610463155474925	0,20019766978354163	0,000416186464	-0,70807334996840781	0,026419168702065475	0,40485025085691162
1	1	0	0	0	0	2	31700,21	0,200000003	2,08181071	0,0005561118338017001	0,2002002625924753	0,000416779047	-0,66580923631799142	0,02484223779706328	0,44711436450732768
1	1	0	0	0	0	2	32460,21	0,200000003	2,08704829	0,00055611019600679475	0,20019967298630227	0,000417826377	-0,62354470986325811	0,023265291489776998	0,48937889096206112
1	1	0	0	0	0	2	33220,21	0,200000003	2,09205747	0,00055612868642558656	0,20020632674029782	0,000418843149	-0,58127972629745651	0,021688328127062163	0,53164387452786266
1	1	0	0	0	0	2	33980,21	0,200000003	2,09923768	0,00055611103747950669	0,20019997311972086	0,000420267315	-0,53901462468940019	0,020111360360032099	0,57390897613591898
1	1	0	0	0	0	2	34740,21	0,200000003	2,10858917	0,00055611504719985856	0,2002014166190449	0,000422142533	-0,49675000978099558	0,018534410752420413	0,61617359104432358
1	1	0	0	0	0	2	35500,21	0,200000003	2,11281729	0,00055612104630387494	0,20020357629648678	0,000422993588	-0,45448515406365632	0,016957452159903603	0,65843844676166362
1	1	0	0	0	0	2	36260,21	0,200000003	2,12367344	0,00055611459180961043	0,20020125267855587	0,000425162085	-0,41222069047308666	0,015380508198163786	0,70070291035223309
1	1	0	0	0	0	2	37020,21	0,200000003	2,1416719	0,00055611412933468819	0,20020108618758416	0,000428765052	-0,36995628755524544	0,013803566500205046	0,74296731327007475
1	1	0	0	0	0	2	37780,21	0,200000003	2,14789987	0,00055612248703671827	0,20020409496030938	0,00043001835	-0,32769150605469971	0,012226610676816589	0,78523209477062067
1	1	0	0	0	0	2	38540,21	0,200000003	2,15468001	0,00055610917587909434	0,2001993029435737	0,00043136545	-0,28542688531510534	0,010649660851635371	0,8274967155102144
1	1	0	0	0	0	2	39300,21	0,200000003	2,16161275	0,0005561087121317785	0,20019913599454029	0,000432753004	-0,24316257689001914	0,0090727226793283648	0,86976102393530035
1	1	0	0	0	0	2	40060,21	0,200000003	2,16359353	0,0005561082102093431	0,2001989553024639	0,000433149165	-0,20089826585281395	0,007495784409559689	0,91202533497250598
1	1	0	0	0	0	2	40820,21	0,200000003	2,16646957	0,00055611769225531155	0,20020236883900618	0,000433732348	-0,15863382729217974	0,0059188413817204173	0,95428977353314061
1	1	0	0	0	0	2	41580,21	0,200000003	2,17858267	0,00055611132914821312	0,20020007812045501	0,000436152419	-0,11636939709815534	0,0043418986660506074	0,99655420372716493
1	1	0	0	0	0	2	42340,21	0,200000003	2,17822075	0,00055610760616676678	0,20019873784713686	0,00043607704	-0,074104815632120499	0,0027649503062187011	1,0388187851932005
1	1	0	0	0	0	2	43100,21	0,200000003	2,18572474	0,00055610676934735642	0,2001984365921497	0,000437578681	-0,031840215554434304	0,0011880012519610586	1,0810833852708867
1	1	0	0	0	0	2	43860,21	0,200000003	2,19239092	0,00055610250611934394	0,20019690183006806	0,000438909861	0,010424169641110723	-0,00038893978475498483	1,1233477704664318
1	1	0	0	0	0	2	44620,21	0,200000003	2,20115185	0,00055610296288463795	0,2001970662655736	0,000440664153	0,052688483593047603	-0,0019658781632762202	1,1656120844183686
1	1	0	0	0	0	2	45380,21	0,200000003	2,2137413	0,00055611113348023757	0,20020000767998397	0,000443191035	0,094953163114281254	-0,003542830181679431	1,2078767639396024
1	1	0	0	0	0	2	46140,21	0,200000003	2,22539735	0,00055611955557598016	0,20020303963444563	0,000445531303	0,13721789708840598	-0,0051197842317932205	1,2501414979137274
1	1	0	0	0	0	2	46900,21	0,200000003	2,24676681	0,00055611136997159987	0,20020009281687424	0,00044980293	0,17948267495616525	-0,0066967399196375309	1,2924062757814861
1	1	0	0	0	0	2	47660,21	0,200000003	2,29699063	0,00055611338582800486	0,20020081852517869	0,00045985941	0,22174722549856288	-0,0082736871256669555	1,334670826323884
1	1	0	0	0	0	2	48420,21	0,200000003	2,93689227	0,0005561250143282944	0,20020500478527507	0,000587980554	0,2640121033081032	-0,0098506465424734912	1,376935704133425
1	1	0	0	0	0	2	48670,79	0,200000003	3,50007725	3,2343983830677139E-005	0,20020347588351571	0,000700727629	0,27794740244197603	-0,010370591289367238	1,3908710032672979