File: Experimentelles/Rohdaten/Batterietests/AlteZelle/Studenten_Batterietests/S vs Li GCPL 200µm/ZView-Export/S vs Li GCPL 200µm_02_GCPL_C05_loop6.txt
EC-Lab ASCII FILE
Nb header lines : 3
mode	ox/red	error	control changes	Ns changes	counter inc.	Ns	time/s	control/V/mA	Ewe/V	dq/mA.h	<I>/mA	P/W	(Q-Qo)/mA.h	x	Capacity/mA.h
1	0	0	1	1	0	1	134720,93	-0,200000003	3,27933645	0	0	0	0	0	0
1	0	0	1	0	0	1	134760,93	-0,200000003	1,93759596	-0,00055477613486929075	-0,19971937730441302	0,000386975473	-0,0022163606171597267	8,2695394554772186E-005	0,0022163606171597267
1	0	0	1	0	0	1	134800,93	-0,200000003	1,90455139	-0,00055477209363132723	-0,19971792245897376	0,000380373036	-0,0044354668721545958	0,00016549323254872288	0,0044354668721545958
1	0	0	1	0	0	1	134840,93	-0,200000003	1,86946905	-0,00055477141333785325	-0,19971767755336144	0,000373366027	-0,0066545653236746022	0,00024829077938453459	0,0066545653236746022
1	0	0	1	0	0	1	134880,93	-0,200000003	1,83122492	-0,0005547830342004697	-0,19972186106324883	0,000365735643	-0,0088736834455974464	0,00033108906014952326	0,0088736834455974464
1	0	0	1	0	0	1	134920,93	-0,200000003	1,78842878	-0,00055476871206611392	-0,19971670509568746	0,000357179117	-0,011092773314839194	0,00041388628676899411	0,011092773314839194
1	0	0	1	0	0	1	134960,93	-0,200000003	1,74250937	-0,00055476237631506394	-0,19971442422566634	0,000348004251	-0,013311840246923853	0,00049668265757229459	0,013311840246923853
1	0	0	1	0	0	1	135000,93	-0,200000003	1,68868577	-0,0005547707209934791	-0,19971742830942576	0,000337259989	-0,015530903638867629	0,00057947889628817894	0,015530903638867629
1	0	0	1	0	0	1	135040,93	-0,200000003	1,62871051	-0,00055476318221373696	-0,1997147143491432	0,000325277448	-0,017749948568610442	0,00066227444615452288	0,017749948568610442
1	0	0	1	0	0	1	135080,93	-0,200000003	1,56846857	-0,00055476682985656794	-0,19971602750035693	0,000313248311	-0,019969013954345309	0,0007450707592614336	0,019969013954345309
1	0	0	1	0	0	1	135120,93	-0,200000003	1,50706482	-0,00055475682999276454	-0,19971242754995094	0,000300979562	-0,022188050021984269	0,00082786597847076736	0,022188050021984269
1	1	0	0	0	0	2	135144,77	0,200000003	2,65788984	0,00055611835631231469	0,20020257694829917	0,000532116392	-0,021288724771326371	0,00079431094421306176	0,0011122444736982384
1	1	0	0	0	0	2	135184,77	0,200000003	2,62581682	0,00055612100010448026	0,20020352871332986	0,000525697775	-0,019064236757143264	0,0007113123055479456	0,0033367324878813491
1	1	0	0	0	0	2	135224,77	0,200000003	2,43455863	0,00055613435507400166	0,20020833650160531	0,000487418933	-0,016839717245193578	0,00062831249165880934	0,0055612519998310336
1	1	0	0	0	0	2	135264,77	0,200000003	2,41431284	0,00055613074525362918	0,20020703696647456	0,000483362412	-0,014615185404755766	0,00054531221777720531	0,0077857838402688499
1	1	0	0	0	0	2	135304,77	0,200000003	2,37793541	0,00055612502482533459	0,20020497761261069	0,000476074492	-0,012390671738435587	0,0004623126219963655	0,010010297506589027
1	1	0	0	0	0	2	135344,77	0,200000003	2,3686409	0,00055612939172155322	0,20020654969500346	0,000474217435	-0,01016616802961935	0,00037931339774338566	0,012234801215405266
1	1	0	0	0	0	2	135384,77	0,200000003	2,3931911	0,00055613063979314438	0,20020699900070595	0,000479133596	-0,0079416414430610957	0,00029631331989109178	0,01445932780196352
1	1	0	0	0	0	2	135424,77	0,200000003	2,38854384	0,0005561300461813808	0,20020678530050451	0,000478202681	-0,0057171195197757037	0,00021331341603177824	0,016683849725248909
1	1	0	0	0	0	2	135464,77	0,200000003	2,3966763	0,00055613835909797082	0,2002097779500087	0,000479838025	-0,0034925757930019789	0,0001303126986549999	0,018908393452022637
1	1	0	0	0	0	2	135504,77	0,200000003	2,38450623	0,0005561351466377575	0,20020862146451286	0,000477398717	-0,0012680428067344059	4,7312382020946816E-005	0,021132926438290208
1	1	0	0	0	0	2	135544,77	0,200000003	2,40313292	0,00055612167140758701	0,20020377038241043	0,000481116265	0,00095647786979152474	-3,568747532009495E-005	0,023357447114816138
1	1	0	0	0	0	2	135584,77	0,200000003	2,39393377	0,00055612365699890586	0,20020448519517341	0,000479276292	0,0031809688027379277	-0,00011868622288819389	0,025581938047762544
1	1	0	0	0	0	2	135624,77	0,200000003	2,39168644	0,00055612661465009056	0,20020554994943328	0,000478828908	0,0054054834653282202	-0,00020168585584121117	0,027806452710352835
1	1	0	0	0	0	2	135664,77	0,200000003	2,40014267	0,0005561279897209671	0,20020604497487139	0,000480523071	0,0076299990563866867	-0,00028468552343662435	0,030030968301411302
1	1	0	0	0	0	2	135704,77	0,200000003	2,41278911	0,00055612995343407002	0,20020675191147782	0,000483056676	0,0098545153671579942	-0,00036768521788549133	0,032255484612182605
1	1	0	0	0	0	2	135744,77	0,200000003	2,40288544	0,00055612735739184755	0,20020581733642397	0,000481071649	0,012079036685839531	-0,00045068509918622214	0,034480005930864154
1	1	0	0	0	0	2	135784,77	0,200000003	2,40861821	0,00055612802634470995	0,20020605815941674	0,00048221997	0,01430355030430463	-0,00053368469318152461	0,036704519549329242
1	1	0	0	0	0	2	135824,77	0,200000003	2,41867423	0,00055613028274724883	0,20020687046420365	0,000484235206	0,016528059751454563	-0,00061668413153944986	0,038929028996479174
1	1	0	0	0	0	2	135864,77	0,200000003	2,41692209	0,00055612618885934355	0,20020539666478835	0,000483880838	0,018752573819738528	-0,00069968374231809907	0,041153543064763142
1	1	0	0	0	0	2	135904,77	0,200000003	2,41313195	0,00055612741629862125	0,20020583854285917	0,00048312312	0,020977093512141274	-0,0007826835629401815	0,043378062757165888
1	1	0	0	0	0	2	135944,77	0,200000003	2,42695928	0,00055612751853714387	0,2002058753487216	0,000485891505	0,023201606656858723	-0,00086568313925932224	0,045602575901883341
1	1	0	0	0	0	2	135984,77	0,200000003	2,44408154	0,00055613664700670381	0,20020916159724896	0,000489327533	0,025426140587423645	-0,00094868349112637901	0,047827109832448256
1	1	0	0	0	0	2	136024,77	0,200000003	2,44690013	0,00055613033156428077	0,20020688803833238	0,000489886268	0,027650670671424336	-0,0010316836994729526	0,050051639916448947
1	1	0	0	0	0	2	136064,77	0,200000003	2,46276546	0,00055612820441938106	0,20020612226628835	0,000493060739	0,029875194508691859	-0,001114683674745513	0,052276163753716474
1	1	0	0	0	0	2	136104,77	0,200000003	2,51917911	0,0005561308433752921	0,20020707229026765	0,000504357449	0,032099716870693107	-0,001197683594973905	0,054500686115717715
1	1	0	0	0	0	2	136144,77	0,200000003	2,55624223	0,00055613126460628378	0,20020722393340093	0,000511778169	0,03432423105975513	-0,0012806832102589458	0,056725200304779731
1	1	0	0	0	0	2	136184,77	0,200000003	2,52734971	0,00055612972929494253	0,20020667122140458	0,00050599227	0,036548756225779891	-0,0013636832351092253	0,058949725470804493
1	1	0	0	0	0	2	136224,77	0,200000003	2,84472942	0,00055612792013751136	0,20020601992483126	0,000569531927	0,038773269124637286	-0,0014466828022549965	0,061174238369661888
1	1	0	0	0	0	2	136264,77	0,200000003	2,91146612	0,00055612425734102733	0,20020470131830333	0,000582889188	0,040997759225387782	-0,0015296815187727472	0,06339872847041239
1	1	0	0	0	0	2	136304,77	0,200000003	2,85067177	0,00055612399652434726	0,20020460742431318	0,000570717617	0,04322224460487175	-0,0016126800591336963	0,065623213849896333
1	1	0	0	0	0	2	136344,77	0,200000003	2,98088813	0,0005561204807907344	0,20020334176041056	0,000596783764	0,045446721622843962	-0,001695678287515399	0,067847690867868531
1	1	0	0	0	0	2	136384,77	0,200000003	3,11498976	0,00055612543023294861	0,20020512355932893	0,000623636937	0,047671198826927526	-0,0017786765228411667	0,070072168071952102
1	1	0	0	0	0	2	136424,77	0,200000003	3,1221509	0,00055612427112129011	0,20020470627919712	0,000625069311	0,049895709065472333	-0,0018616759907270989	0,072296678310496909
1	1	0	0	0	0	2	136464,77	0,200000003	3,22692204	0,0005561285562697383	0,20020624893239712	0,000646049972	0,052120225072289747	-0,0019446756738350374	0,07452119431731433
1	1	0	0	0	0	2	136504,77	0,200000003	3,13908267	0,00055612812783320736	0,20020609469527011	0,000628463458	0,054344730519140179	-0,0020276749629364096	0,076745699764164762
1	1	0	0	0	0	2	136544,77	0,200000003	3,36245227	0,00055612924447572896	0,20020649668651501	0,000673184812	0,056569229849621894	-0,0021106740238278419	0,07897019909464649
1	1	0	0	0	0	2	136584,77	0,200000003	3,23728299	0,00055612458020034758	0,20020481754764042	0,000648119661	0,058793745972230438	-0,0021936737112561034	0,081194715217255053
1	1	0	0	0	0	2	136618,73	0,200000003	3,50019169	0,00022038445762793222	0,20020791440740019	0,000700766104	0,060682520875829197	-0,002264146442394239	0,083083490120853798