File: Experimentelles/Ausgewaehlte_Daten/LATP/GCPL/LATP_Korrosion_05_GCPL_C02.txt
EC-Lab ASCII FILE
Nb header lines : 86

Galvanostatic Cycling with Potential Limitation

Run on channel : 2 (SN 6986)
Grouped channel(s) : 2
User :
CE vs. WE compliance from -10 V to 10 V
Electrode connection : standard
Ewe ctrl range : min = 0,00 V, max = 5,00 V
Acquisition started on : 09/02/2015 11:42:26
Saved on :
	File : LATP_Korrosion_05_GCPL_C02.mpr
	Directory : C:\Hupfer\Stabilitätstest Folie gegen Li\
	Host : 192.168.0.2
Device : VMP3 (SN 0324)
Address : 192.168.0.1
EC-Lab for windows v10.33 (software)
Internet server v10.33 (firmware)
Command interpretor v10.32 (firmware)
Electrode material : LATP
Initial state :
Electrolyte : LP-30
Comments :
Mass of active material : 0,001 mg
 at x = 0,000
Molecular weight of active material (at x = 0) : 0,001 g/mol
Atomic weight of intercalated ion : 0,001 g/mol
Acquisition started at : xo = 0,000
Number of e- transfered per intercalated ion : 1
for DX = 1, DQ = 26,801 mA.h
Battery capacity : 0,000 A.h
Reference electrode : Li+/Li (-3,020 V)
Electrode surface area : 0,001 cm²
Characteristic mass : 0,001 g
Ns                  0                   1                   2
Set I/C             I                   I                   I
Is                  0,000               50,000              -50,000
unit Is             mA                  µA                  µA
vs.                 <None>              <None>              <None>
N                   1                   1                   1
I sign              > 0                 > 0                 > 0
t1 (h:m:s)          0:00:0,0000         6:00:0,0000         6:00:0,0000
I Range             100 µA              100 µA              100 µA
Bandwidth           5                   5                   5
dE1 (mV)            0,00                10,00               10,00
dt1 (s)             0,0000              10,0000             10,0000
EM (V)              0,000               4,000               1,500
tM (h:m:s)          0:00:0,0000         0:00:0,0000         0:00:0,0000
Im                  0,000               0,000               0,000
unit Im             mA                  mA                  mA
E range min (V)     0,000               0,000               0,000
E range max (V)     5,000               5,000               5,000
dq                  0,000               1,000               1,000
unit dq             mA.h                mA.h                mA.h
dtq (s)             0,0000              120,0000            120,0000
dQM                 0,000               0,000               0,000
unit dQM            mA.h                mA.h                mA.h
dxM                 0,000               0,000               0,000
tR (h:m:s)          0:00:0,0000         0:00:0,0000         0:00:0,0000
dER/dt (mV/h)       0,0                 0,1                 0,1
dER (mV)            0,00                5,00                5,00
dtR (s)             1,0000              120,0000            120,0000
EL (V)              pass                4,200               3,500
goto Ns'            0                   0                   0
nc cycles           0                   0                   0

Modify on : 09/02/2015 11:45
Electrode material :
Electrolyte :

Number of loops : 11
Loop 0 from point number 0 to 782
Loop 1 from point number 783 to 1754
Loop 2 from point number 1755 to 2716
Loop 3 from point number 2717 to 3669
Loop 4 from point number 3670 to 4617
Loop 5 from point number 4618 to 5573
Loop 6 from point number 5574 to 6527
Loop 7 from point number 6528 to 7468
Loop 8 from point number 7469 to 8399
Loop 9 from point number 8400 to 9325
Loop 10 from point number 9326 to 10284

mode	ox/red	error	control changes	Ns changes	counter inc.	Ns	time/s	control/V/mA	Ewe/V	dq/mA.h	<I>/mA	P/W	Capacity/mA.h	(Q-Qo)/mA.h
1	1	0	0	1	0	1	4108,6895	0,0500000007	2,44394708	0	0	0	0	0
1	1	0	0	0	0	1	5679,8929	0,0500000007	2,71362901	0,00013891006993212634	0,050007625781017485	0,000135702139	0,021824840029713213	0,021824840029713213
1	0	0	1	0	0	2	6330,2049	-0,0500000007	3,76301742	-8,3735711005412877E-006	-0,049991469862354426	0,000188118778	0,00017680767997416358	0,030504671282538758
1	0	0	1	0	0	2	6850,7327	-0,0500000007	2,42938805	-0,00013886599576059315	-0,049991759079073434	0,000121449382	0,0074051401878239398	0,023276338774688963
1	0	0	1	0	0	2	8430,7326	-0,0500000007	2,3151195	-0,00013886799258842238	-0,049992477937100659	0,000115738563	0,02934601881015239	0,001335460152360515
1	1	0	1	0	0	1	9851,3218	0,0500000007	1,57571137	5,586927863044871E-006	0,05000731116584105	7,87970857E-005	3,2621457589262643E-005	-0,018325171589963453
1	1	0	1	0	0	1	10651,5624	0,0500000007	2,51911879	0,00013890881368455786	0,05000717353188736	0,000125974009	0,011148704563177594	-0,0072090884843751155
1	1	0	1	0	0	1	12231,5624	0,0500000007	2,69194245	0,00013890935080767506	0,050007366896211885	0,000134616959	0,033096407670643283	0,01473861462309057
1	1	0	1	0	0	1	13301,3772	0,0500000007	3,92274737	3,9167207005744179E-005	0,050007783702566861	0,000196167908	0,047957208678195795	0,02959941563064304
1	0	0	0	0	0	2	13526,0526	-0,0500000007	2,50320196	-0,00013886725221822659	-0,04999221140382695	0,000125140607	0,0027921636353300672	0,027135184413557123
1	0	0	0	0	0	2	15106,0526	-0,0500000007	2,35351419	-0,00013886651401345928	-0,049991945650107501	0,000117656753	0,024733122753081014	0,0051942252958061626
1	0	0	0	0	0	2	16651,4657	-0,0500000007	1,65459883	-9,8945885166939763E-005	-0,049992307712489805	8,27172116E-005	0,046193797127385075	-0,01626644907849793
1	1	0	1	0	0	1	17321,8495	0,0500000007	2,50857115	0,00013890975253946251	0,050007511519657126	0,000125447405	0,0078067199229323238	-0,0099634620016981926
1	1	0	1	0	0	1	18901,8495	0,0500000007	2,65099192	0,00013890967514945403	0,050007483659253728	0,000132569432	0,029754486824975098	0,011984304900344566
1	1	0	1	0	0	1	20103,3569	0,0500000007	3,73653412	3,6561282357200979E-005	0,05000783361719081	0,000186855978	0,046444659567136595	0,028674477642506067
1	0	0	0	0	0	2	20254,7851	-0,0500000007	2,69033074	-1,8199939720539584E-005	-0,049992204934415456	0,000134495567	0,0011066008530194973	0,028564419272286522
1	0	0	0	0	0	2	21761,7503	-0,0500000007	2,36896348	-0,00013886678159236909	-0,049992041978516192	0,000118429321	1,1458327366881483E090	0,0076376507720236557
1	0	0	0	0	0	2	23338,8575	-0,0500000007	1,80032897	-0,00012481327778059576	-0,049991967673685075	9,00019877E-005	1,1458327366881483E090	-0,014263124342723733
1	1	0	1	0	0	1	23984,5533	0,0500000007	2,49989271	0,0001389096953390787	0,050007490927518701	0,000125013365	1,1458327366881483E090	-0,011483725904957658
1	1	0	1	0	0	1	25564,5532	0,0500000007	2,63022113	0,00013890982545001638	0,050007537767456832	0,000131530876	1,1458327366881483E090	0,01046407619896909
1	1	0	1	0	0	1	26838,0216	0,0500000007	3,63424373	3,9217168018428813E-005	0,050007724062882374	0,000181740252	1,1458327366881483E090	0,028153835176040973
1	0	0	0	0	0	2	27007,0938	-0,0500000007	2,78960776	-9,456737264990807E-006	-0,049991563240236749	0,000139456854	1,1458327366881483E090	0,028540175101639114
1	0	0	0	0	0	2	28416,9756	-0,0500000007	2,3627646	-0,00013886657953759035	-0,049991969238794976	0,000118119257	1,1458327366881483E090	0,0089616030009709939
1	0	0	0	0	0	2	29996,9756	-0,0500000007	1,84429312	-0,00013886590752295322	-0,049991727313522682	9,21993997E-005	1,1458327366881483E090	-0,012979367427358797
1	1	0	1	0	0	1	30660,1454	0,0500000007	2,47801566	0,00013890932176013787	0,050007356439098381	0,000123919017	1,1458327366881483E090	-0,011334937788388571
1	1	0	1	0	0	1	32240,1454	0,0500000007	2,616431	0,00013890870044318339	0,050007132764992051	0,000130840213	1,1458327366881483E090	0,010612725107529322
1	1	0	1	0	0	1	33500,3418	0,0500000007	3,62072062	3,7458057617354726E-005	0,050007048567825843	0,00018106155	1,1458327366881483E090	0,028117972455009402
1	0	0	0	0	0	2	33672,4752	-0,0500000007	2,7982862	-9,2012691069394355E-006	-0,049991803092612909	0,000139891374	1,1458327366881483E090	0,028555013512485565
1	0	0	0	0	0	2	35033,1696	-0,0500000007	2,32478952	-0,00013886603315381541	-0,049991771842256614	0,000116220348	1,1458327366881483E090	0,009659534654523977
1	0	0	0	0	0	2	36613,1696	-0,0500000007	1,84103155	-0,00013886599366698	-0,049991757626995898	9,20364037E-005	1,1458327366881483E090	-0,012281392949545744
1	1	0	1	0	0	1	37310,2932	0,0500000007	2,45758796	0,00013890877754282619	0,050007159822271834	0,000122896992	1,1458327366881483E090	-0,010328757813608533
1	1	0	1	0	0	1	38890,2932	0,0500000007	2,58801174	0,00013890952479694453	0,050007428833753939	0,000129419815	1,1458327366881483E090	0,011618941930581453
1	1	0	1	0	0	1	40077,1828	0,0500000007	3,61080241	3,2960479882649254E-005	0,050007471070346861	0,000180567091	1,1458327366881483E090	0,028106006552667414
1	0	0	0	0	0	2	40249,9550	-0,0500000007	2,80740333	-8,6124099215699558E-006	-0,049991415122883059	0,000140346063	1,1458327366881483E090	0,028578473799915117
1	0	0	0	0	0	2	41586,7706	-0,0500000007	2,32261515	-0,00013886618012334736	-0,049991824751288013	0,000116111769	1,1458327366881483E090	0,010014595654339594
1	0	0	0	0	0	2	43146,6620	-0,0500000007	1,8587507	-0,00012984209061082867	-0,049991607166961536	9,29219314E-005	1,1458327366881483E090	-0,011646998425883597
1	1	0	1	0	0	1	43749,9092	0,0500000007	2,4058609	0,00013891045227998661	0,050007762727648461	0,000120311721	1,1458327366881483E090	-0,012728542298988477
1	1	0	1	0	0	1	45289,6172	0,0500000007	2,53422475	0,00013890964957988925	0,050007473755613952	0,00012673017	1,1458327366881483E090	0,0086594825591501568
1	1	0	1	0	0	1	46644,8030	0,0500000007	3,44392943	4,5164929725022778E-005	0,050007303532922266	0,000172221626	1,1458327366881483E090	0,02748426290093535
1	0	0	0	0	0	2	46858,2184	-0,0500000007	2,97528696	-9,2263378254655334E-006	-0,049992197641540768	0,000148741135	1,1458327366881483E090	0,028778856929588922
1	0	0	0	0	0	2	48007,4776	-0,0500000007	2,2937572	-0,00013886572424819072	-0,049991660636231936	0,000114668728	1,1458327366881483E090	0,01281951019636736
1	0	0	0	0	0	2	49587,4776	-0,0500000007	1,92665184	-0,00013886598864922093	-0,04999175582060263	9,63167113E-005	1,1458327366881483E090	-0,0091212941113409587
1	1	0	1	0	0	1	50333,0668	0,0500000007	2,42716599	0,00013890967719112005	0,050007483695657024	0,000121376463	1,1458327366881483E090	-0,010886828469348397
1	1	0	1	0	0	1	51913,0668	0,0500000007	2,56758428	0,00013891009562628138	0,05000763433231481	0,000128398809	1,1458327366881483E090	0,011060931007893808
1	1	0	1	0	0	1	53138,8918	0,0500000007	3,60338283	2,4223059737227027E-005	0,050007463524541037	0,000180196032	1,1458327366881483E090	0,028088823343020602
1	0	0	0	0	0	2	53310,8046	-0,0500000007	2,81564283	-8,1763936765491968E-006	-0,04999153732961241	0,000140758319	1,1458327366881483E090	0,028561635051129846
1	0	0	0	0	0	2	54602,7154	-0,0500000007	2,32246256	-0,00013886530522215696	-0,049991509786860064	0,000116103409	1,1458327366881483E090	0,01062145938099285
1	0	0	0	0	0	2	56108,5380	-0,0500000007	1,89134705	-0,00013886512612054744	-0,049991445310280755	9,45511711E-005	1,1458327366881483E090	-0,010289204771136803
1	1	0	1	0	0	1	56818,2662	0,0500000007	2,43780899	0,00013890915486464896	0,050007295658127782	0,000121908233	1,1458327366881483E090	-0,010270345007514506
1	1	0	1	0	0	1	58398,2662	0,0500000007	2,57109356	0,0001389095147103071	0,050007425202564474	0,000128573767	1,1458327366881483E090	0,011677288345013926
1	1	0	1	0	0	1	59596,1364	0,0500000007	3,64906359	3,4963466915198496E-005	0,050007342334684429	0,000182479969	1,1458327366881483E090	0,028316810673660154
1	0	0	0	0	0	2	59759,4748	-0,0500000007	2,76494598	-8,4041656259861261E-006	-0,049991731992115162	0,000138224437	1,1458327366881483E090	0,028561083757118701
1	0	0	0	0	0	2	61101,1736	-0,0500000007	2,2636404	-0,0001388659452152335	-0,049991740184367194	0,000113163325	1,1458327366881483E090	0,0099294997119877274
1	0	0	0	0	0	2	62680,0390	-0,0500000007	1,74903119	-0,00012932210475144286	-0,04999136416922464	8,74364559E-005	1,1458327366881483E090	-0,011995509359257234
1	1	0	1	0	0	1	63417,8362	0,0500000007	2,44833732	0,00013890881221472389	0,050007172304154989	0,000122434431	1,1458327366881483E090	-0,0075473154779322355
1	1	0	1	0	0	1	64995,6500	0,0500000007	2,6612916	0,0001389091057791892	0,050007277987362298	0,000133083944	1,1458327366881483E090	0,014369933611664973
1	1	0	1	0	0	1	66040,7451	0,0500000007	3,86743474	3,457989438995719E-005	0,050007089842975027	0,000193399159	1,1458327366881483E090	0,028887221963549498
1	0	0	0	0	0	2	66180,9107	-0,0500000007	2,55656934	-6,8144488182125811E-005	-0,049991892537384422	0,00012780774	1,1458327366881483E090	0,027878137945394582
1	0	0	0	0	0	2	67740,6001	-0,0500000007	2,28240848	-0,00013886841265629563	-0,049991640635358406	0,000114101342	1,1458327366881483E090	0,0062194906591653235
1	0	0	0	0	0	2	69263,5521	-0,0500000007	1,51864386	-0,00011594092466682197	-0,049991307945361587	7,59189934E-005	1,1458327366881483E090	-0,014928961085297978
1	1	0	1	0	0	1	69988,3850	0,0500000007	2,50769377	0,00013891166063398125	0,050007209457611315	0,000125402774	1,1458327366881483E090	-0,0053763869680770118
1	1	0	1	0	0	1	71568,4162	0,0500000007	2,73974037	0,0001389120662247555	0,050007355430146586	0,00013700717	1,1458327366881483E090	0,016571723217970838
1	1	0	1	0	0	1	72426,8814	0,0500000007	3,72953415	3,3013138352996774E-005	0,050007290420108781	0,000186503894	1,1458327366881483E090	0,028496619129358941
1	0	0	0	0	0	2	72572,1917	-0,0500000007	2,68403673	-9,5150245972391616E-006	-0,049991384270882586	0,000134178714	1,1458327366881483E090	0,028437417836303152
1	0	0	0	0	0	2	73980,1040	-0,0500000007	2,24056149	-0,0001388682718668133	-0,049991589882892256	0,000112009227	1,1458327366881483E090	0,0088863419578158643
1	0	0	0	0	0	2	75534,0988	-0,0500000007	1,63401866	-0,00011276472810014256	-0,049991763518619667	8,16874744E-005	1,1458327366881483E090	-0,012693317063183795
1	0	0	0	0	0	2	75637,9160	-0,0500000007	1,49999011	-3,2261295769156678E-005	-0,0499916890673736	7,49870378E-005	1,1458327366881483E090	-0,01413498067640799