File: Experimentelles/Ausgewaehlte_Daten/LAGP/PEIS/LAGP_Korrosion_07_PEIS_C02.mpt
EC-Lab ASCII FILE
Nb header lines : 68

Potentio Electrochemical Impedance Spectroscopy

Run on channel : 2 (SN 6986)
Grouped channel(s) : 2
User :
CE vs. WE compliance from -10 V to 10 V
Electrode connection : standard
Ewe ctrl range : min = 0,00 V, max = 5,00 V
Acquisition started on : 08.27.2015 14:25:34
Saved on :
	File : LAGP_Korrosion_07_PEIS_C02.mpr
	Directory : C:\Gielisch\NeueZelle\LiS-Test\Paul\
	Host : 192.168.0.2
Device : VMP3 (SN 0324)
Address : 192.168.0.1
EC-Lab for windows v10.33 (software)
Internet server v10.33 (firmware)
Command interpretor v10.32 (firmware)
Electrode material :
Initial state :
Electrolyte :
Comments :
Mass of active material : 0,001 mg
 at x = 0,000
Molecular weight of active material (at x = 0) : 0,001 g/mol
Atomic weight of intercalated ion : 0,001 g/mol
Acquisition started at : xo = 0,000
Number of e- transfered per intercalated ion : 1
for DX = 1, DQ = 26,801 mA.h
Battery capacity : 0,000 A.h
Electrode surface area : 0,001 cm²
Characteristic mass : 0,001 g
Multi Sine          0
E (V)               0,0000
vs.                 Eoc
tE (h:m:s)          0:00:0,0000
record              0
dI                  0,000
unit dI             mA
dt (s)              0,000
fi                  1,000
unit fi             MHz
ff                  1,000
unit ff             Hz
Sel Nd              1
Nd                  6
Nt                  51
Log                 1
Va (mV)             10,0
pw                  0,10
Na                  2
E range min (V)     0,000
E range max (V)     5,000
I Range             Auto
Bandwidth           5
corr                0
nc cycles           0
goto Ns'            0
nr cycles           0
inc. cycle          0

Number of loops : 1
Loop 0 from point number 0 to 36

freq/Hz	Re(Z)/Ohm	-Im(Z)/Ohm	|Z|/Ohm	Phase(Z)/deg	time/s	<Ewe>/V	<I>/mA	Cs/µF	Cp/µF	cycle number	I Range	|Ewe|/V	|I|/A	Re(Y)/Ohm-1	Im(Y)/Ohm-1	|Y|/Ohm-1	Phase(Y)/deg
1000024,25	15,7464676	-2,32383227	15,917017	8,39500046	6908,4171	1,50324273	-0,0133474879	-0,0684864819	-0,00145979214	1	10	0,000668352121	4,19897842E-005	0,0621526688	-0,009172366	0,0628258437	-8,39500046
681286,5	13,2787142	-1,14506936	13,3279943	4,92862034	6909,6490	1,50367713	-0,0198155884	-0,204013333	-0,00150588749	1	10	0,00214503985	0,000160942436	0,0747526214	-0,00644617667	0,0750300437	-4,92862034
464160,125	13,2278414	-0,165967613	13,2288828	0,718843281	6910,8810	1,50384462	-0,0187869463	-2,06599355	-0,000325184112	1	10	0,00633250503	0,000478687813	0,0755862296	-0,000948368339	0,0755921751	-0,718843281
316223,094	13,3496008	0,755904436	13,370985	-3,24084115	6911,1950	1,50370967	-0,0191465877	0,665824294	0,00212797569	1	10	0,0103787985	0,000776217959	0,0746691972	0,00422804989	0,0747888088	3,24084115
215441,859	13,6107454	1,60477281	13,7050238	-6,72440481	6911,6110	1,50362372	-0,0174806472	0,460337669	0,00631166622	1	10	0,0101194847	0,000738377741	0,0724639967	0,00854385644	0,0729659423	6,72440481
146777,328	14,0644064	2,52304339	14,2889214	-10,1702328	6912,0270	1,50359213	-0,0174843743	0,429770321	0,013399451	1	10	0,0101497844	0,000710325432	0,0688846558	0,0123573625	0,069984287	10,1702328
100024,406	14,7200203	3,566818	15,1459961	-13,6208487	6912,3411	1,50346434	-0,0277558193	0,44610098	0,0247399844	1	10	0,0110342586	0,000728526444	0,0641671494	0,0155483847	0,0660240501	13,6208487
68127,4297	15,6258583	4,62839031	16,2969151	-16,4993267	6912,6550	1,50356901	-0,0169868283	0,504740477	0,0407115184	1	10	0,0106760608	0,000655097014	0,0588346347	0,0174268615	0,0613613054	16,4993267
46411,125	16,8842144	5,75727367	17,8388023	-18,8286381	6912,9691	1,50357163	-0,0163103919	0,595636308	0,0620416775	1	10	0,0104053756	0,000583300134	0,0530578271	0,0180919562	0,0560575761	18,8286381
31628,4121	18,500061	6,85807467	19,7303181	-20,3400211	6913,2831	1,50357878	-0,0165992305	0,733737171	0,0886496007	1	10	0,0101918606	0,000516558357	0,047523126	0,0176170841	0,0506834202	20,3400211
21545,4082	20,3978844	7,87298536	21,8645287	-21,1051254	6913,4950	1,50358248	-0,0156134563	0,93826592	0,121653497	1	10	0,0108589083	0,000496644992	0,0426682569	0,0164686944	0,0457361788	21,1051254
14672,8496	22,6266136	8,74452686	24,2575836	-21,1300659	6913,8091	1,5035733	-0,0161035508	1,24042165	0,161193267	1	10	0,010103845	0,000416523137	0,0384524912	0,0148607688	0,0412242226	21,1300659
10015,2705	25,1141491	9,48708153	26,8463249	-20,6944809	6914,0613	1,50362051	-0,0142661715	1,67503858	0,209180117	1	10	0,0101394961	0,000377686549	0,0348456688	0,0131632444	0,0372490473	20,6944809
6856,00244	27,8418407	9,99359035	29,5810738	-19,7451668	6914,4107	1,50361621	-0,0153823895	2,32288456	0,265120208	1	10	0,010125096	0,000342282903	0,0318177938	0,0114207258	0,0338054001	19,7451668
4642,42725	30,8074436	10,203948	32,4533386	-18,3257465	6914,8619	1,50361621	-0,0146416621	3,3597486	0,332142532	1	10	0,0094624944	0,000291572302	0,0292507429	0,00968834199	0,0308134705	18,3257465
3160,05566	33,8135872	9,9545927	35,2484398	-16,4042301	6915,3129	1,50361753	-0,0143015794	5,05943346	0,403523743	1	10	0,0097800456	0,000277460378	0,027215194	0,00801205076	0,0283700507	16,4042301
2152,93286	36,5711746	9,30633163	37,736702	-14,2771301	6916,0094	1,50361204	-0,0158203356	7,94348574	0,483103603	1	11	0,0100615956	0,000266626244	0,025680948	0,00653507607	0,0264994018	14,2771301
1468,58972	39,0300102	8,35616589	39,9144974	-12,0843601	6916,4604	1,50361586	-0,0155762937	12,969183	0,568414807	1	11	0,0100756092	0,000252429803	0,024498377	0,00524500292	0,0250535533	12,0843601
999,040405	41,0254707	7,2356658	41,6586609	-10,0023956	6916,9114	1,50361538	-0,0153931472	22,0170231	0,664209366	1	11	0,0100639844	0,000241582049	0,0236397535	0,00416934537	0,0240046121	10,0023956
681,089661	42,5851135	6,16537523	43,0291023	-8,23791313	6917,3619	1,50361228	-0,0151989982	37,9014931	0,778127551	1	11	0,0100529268	0,000233630883	0,0230002869	0,00332992896	0,0232400857	8,23791313
464,553894	43,7750359	5,21618748	44,0847168	-6,79526472	6917,8134	1,50361121	-0,0149919773	65,6796494	0,919519842	1	11	0,010046971	0,000227901444	0,0225242525	0,00268396642	0,0226835981	6,79526472
316,315765	44,6873474	4,45648003	44,9090118	-5,69503546	6918,2624	1,50360906	-0,0148342885	112,903481	1,11179388	1	11	0,0100430604	0,000223631287	0,0221573375	0,00220965734	0,0222672448	5,69503546
215,344498	45,4141464	3,96626973	45,5870171	-4,99129391	6918,7129	1,50361371	-0,0145709449	186,339142	1,41054273	1	11	0,0100420304	0,000220282687	0,0218528863	0,00190853397	0,0219360702	4,99129391
146,737289	46,0089035	3,70395041	46,1577568	-4,60267496	6919,1599	1,50361371	-0,014479558	292,829254	1,88562536	1	11	0,0100378105	0,000217467474	0,0215949658	0,00173850439	0,0216648318	4,60267496
99,9040375	46,5355721	3,71029592	46,6832504	-4,55856752	6919,6114	1,50360942	-0,0142592033	429,366882	2,71221089	1	11	0,0100374045	0,000215010834	0,0213531964	0,00170249713	0,0214209594	4,55856752
68,1888962	47,0534096	3,93974137	47,2180557	-4,78616238	6920,0735	1,50360882	-0,0140818376	592,432312	4,12437344	1	11	0,0100385882	0,000212600629	0,0211044904	0,00176706072	0,0211783387	4,78616238
46,3802681	47,57827	4,46037626	47,7868881	-5,35572147	6920,5123	1,50361335	-0,0139072705	769,334778	6,70256233	1	11	0,0100397617	0,000210094484	0,0208348874	0,00195323257	0,0209262427	5,35572147
31,5869217	48,100235	5,36541748	48,3985558	-6,36483812	6920,9421	1,5036149	-0,0138836773	939,094543	11,5412159	1	11	0,010037682	0,000207396311	0,0205344167	0,00229054433	0,0206617732	6,36483812
21,5220375	48,6607208	6,76798058	49,1291275	-7,91819143	6921,3640	1,50361216	-0,0134721566	1092,64148	20,7356548	1	11	0,0100425445	0,000204411219	0,020160459	0,00280401949	0,0203545243	7,91819143
14,6851501	49,208889	8,82289886	49,9935837	-10,1648331	6921,8245	1,50361502	-0,0132220546	1228,37354	38,2581978	1	11	0,0100358762	0,000200743278	0,0196886081	0,00353006553	0,0200025663	10,1648331
9,9904108	50,1442871	11,9080753	51,5388374	-13,3589287	6922,2754	1,50361156	-0,0130935526	1337,81238	71,4182358	1	11	0,0100402245	0,000194808905	0,0188778359	0,00448303716	0,019402843	13,3589287
6,81718969	51,3401909	16,1892223	53,8322029	-17,501749	6922,6149	1,5036118	-0,0137941558	1442,078	130,423676	1	11	0,0100385295	0,000186478152	0,0177163072	0,00558652449	0,018576242	17,501749
4,63925123	52,3726425	22,1287212	56,8557281	-22,9052467	6923,0997	1,50361228	-0,0128111867	1550,30066	234,844345	1	11	0,0100321844	0,000176449845	0,0162015297	0,00684554223	0,017588377	22,9052467
3,16039586	54,417675	31,5089397	62,8816071	-30,0717144	6923,7937	1,5036186	-0,0126912305	1598,25049	401,296295	1	11	0,0100363232	0,000159606658	0,013762353	0,0079686828	0,0159029011	30,0717144
2,1522038	56,1381035	43,0956726	70,7723389	-37,512455	6925,3080	1,50362492	-0,01251492	1715,94373	636,272705	1	12	0,0100375237	0,00014182835	0,0112080649	0,00860412233	0,0141298138	37,512455
1,46630979	58,9040222	60,9424706	84,7565231	-45,9744415	6926,7695	1,50362301	-0,0122138653	1781,04272	920,806152	1	12	0,0100367395	0,000118418495	0,00819971319	0,00848347507	0,0117985019	45,9744415
0,998529792	61,1614838	84,801384	104,556213	-54,199646	6928,9011	1,50361907	-0,0117653795	1879,55994	1236,40955	1	12	0,0100370767	9,59969402E-005	0,0055947192	0,00775716873	0,00956423301	54,199646