File: Experimentelles/Ausgewaehlte_Daten/LAGP/PEIS/LAGP_Korrosion_04_PEIS_C02.mpt
EC-Lab ASCII FILE
Nb header lines : 68

Potentio Electrochemical Impedance Spectroscopy

Run on channel : 2 (SN 6986)
Grouped channel(s) : 2
User :
CE vs. WE compliance from -10 V to 10 V
Electrode connection : standard
Ewe ctrl range : min = 0,00 V, max = 5,00 V
Acquisition started on : 08.27.2015 14:25:34
Saved on :
	File : LAGP_Korrosion_04_PEIS_C02.mpr
	Directory : C:\Gielisch\NeueZelle\LiS-Test\Paul\
	Host : 192.168.0.2
Device : VMP3 (SN 0324)
Address : 192.168.0.1
EC-Lab for windows v10.33 (software)
Internet server v10.33 (firmware)
Command interpretor v10.32 (firmware)
Electrode material :
Initial state :
Electrolyte :
Comments :
Mass of active material : 0,001 mg
 at x = 0,000
Molecular weight of active material (at x = 0) : 0,001 g/mol
Atomic weight of intercalated ion : 0,001 g/mol
Acquisition started at : xo = 0,000
Number of e- transfered per intercalated ion : 1
for DX = 1, DQ = 26,801 mA.h
Battery capacity : 0,000 A.h
Electrode surface area : 0,001 cm²
Characteristic mass : 0,001 g
Multi Sine          0
E (V)               0,0000
vs.                 Eoc
tE (h:m:s)          0:00:0,0000
record              0
dI                  0,000
unit dI             mA
dt (s)              0,000
fi                  1,000
unit fi             MHz
ff                  1,000
unit ff             Hz
Sel Nd              1
Nd                  6
Nt                  51
Log                 1
Va (mV)             10,0
pw                  0,10
Na                  2
E range min (V)     0,000
E range max (V)     5,000
I Range             Auto
Bandwidth           5
corr                0
nc cycles           0
goto Ns'            0
nr cycles           0
inc. cycle          0

Number of loops : 1
Loop 0 from point number 0 to 36

freq/Hz	Re(Z)/Ohm	-Im(Z)/Ohm	|Z|/Ohm	Phase(Z)/deg	time/s	<Ewe>/V	<I>/mA	Cs/µF	Cp/µF	cycle number	I Range	|Ewe|/V	|I|/A	Re(Y)/Ohm-1	Im(Y)/Ohm-1	|Y|/Ohm-1	Phase(Y)/deg
1000024,25	14,9947605	-2,70319676	15,2364731	10,2192955	3924,7519	2,99408293	0,0246169735	-0,0588751398	-0,00185318326	1	10	0,000586520007	3,84944724E-005	0,0645907968	-0,0116441762	0,0656319857	-10,2192955
681286,5	13,1134644	-1,0506947	13,1554899	4,58094406	3925,9839	2,99449944	0,0160412919	-0,222338036	-0,00141825015	1	10	0,00209970959	0,000159607094	0,0757710636	-0,00607103202	0,0760138929	-4,58094406
464160,125	13,0744438	-0,0976791754	13,0748091	0,428048819	3927,2159	2,99468255	0,0144908922	-3,51034927	-0,00019592217	1	10	0,00622680364	0,000476244342	0,0764808208	-0,000571388227	0,0764829516	-0,428048819
316223,094	13,2192707	0,793524683	13,2430658	-3,43522167	3927,5299	2,99456692	0,0136970663	0,634258211	0,00227724598	1	10	0,0103999702	0,00078531442	0,0753755346	0,00452463329	0,0755112171	3,43522167
215441,859	13,4594812	1,6489737	13,5601158	-6,98472309	3927,9459	2,9944582	0,0144424476	0,447998255	0,00662486395	1	10	0,0101858014	0,000751158863	0,0731983855	0,00896782149	0,0737456828	6,98472309
146777,328	13,9097471	2,58276916	14,1475	-10,5189152	3928,3619	2,99442172	0,0142281493	0,419832051	0,0139922434	1	10	0,0101367394	0,000716503942	0,0694960058	0,0129040554	0,0706838667	10,5189152
100024,406	14,5510321	3,59479332	14,9884977	-13,8769083	3928,7779	2,99459553	0,0243281536	0,442629367	0,025460789	1	10	0,0101408716	0,000676576921	0,0647705495	0,0160013903	0,0667178258	13,8769083
68127,4297	15,474762	4,73212194	16,182127	-17,0034275	3929,0919	2,99442554	0,0138815427	0,493676245	0,0422165617	1	10	0,0105486372	0,000651869632	0,0590952747	0,0180711038	0,0617965721	17,0034275
46411,125	16,7283764	5,92373705	17,7462463	-19,4997196	3929,4059	2,99442625	0,0138442721	0,578898311	0,0645031333	1	10	0,0103501733	0,000583231682	0,0531178862	0,0188097376	0,0563499443	19,4997196
31628,4121	18,3745079	7,09333277	19,6961403	-21,1086845	3929,7199	2,99442363	0,0136560602	0,709402025	0,0920091122	1	10	0,0102412924	0,000519964437	0,047364559	0,0182847101	0,0507713705	21,1086845
21545,4082	20,3315907	8,17899513	21,9150524	-21,9139442	3929,9319	2,99443054	0,013626243	0,903161585	0,125799909	1	10	0,0108927516	0,000497044297	0,0423337109	0,0170300119	0,0456307381	21,9139442
14672,8496	22,6262608	9,1685915	24,413332	-22,0587273	3930,2459	2,99443102	0,0136951888	1,1830498	0,166860744	1	10	0,0101195807	0,000414510432	0,037962839	0,015383264	0,0409612246	22,0587273
10015,2705	25,2089996	10,0559702	27,1406746	-21,7472534	3930,4981	2,99447012	0,0147368675	1,58027792	0,216940254	1	10	0,010152177	0,00037405765	0,0342227072	0,013651574	0,0368450694	21,7472534
6856,00244	28,1085014	10,7193432	30,0830879	-20,8746452	3930,8475	2,99446964	0,0134380301	2,16561365	0,274961889	1	10	0,0101319542	0,000336799014	0,0310593862	0,0118446797	0,0332412682	20,8746452
4642,42725	31,3082619	11,0591297	33,2040901	-19,4549313	3931,2987	2,99446559	0,0133290142	3,09994578	0,343884677	1	10	0,00946798548	0,000285145157	0,0283972174	0,0100308508	0,0301167723	19,4549313
3160,05566	34,603756	10,921423	36,2863235	-17,5164165	3931,7497	2,9944787	0,0131724821	4,61154222	0,417752147	1	10	0,00978344679	0,000269618031	0,0262807216	0,00829455908	0,0275585931	17,5164165
2152,93286	37,6746712	10,2871532	39,0538902	-15,2724485	3932,4472	2,99446416	0,0106478576	7,18611956	0,498604566	1	11	0,0100785512	0,000258067797	0,0247013588	0,00674476195	0,0256056432	15,2724485
1468,58972	40,3960571	9,25372982	41,4424057	-12,902422	3932,8983	2,99446416	0,0104082003	11,7112398	0,583910882	1	11	0,0100776693	0,000243172894	0,0235206354	0,0053879912	0,0241298731	12,902422
999,040405	42,6440392	8,03500462	43,3944168	-10,6705875	3933,3492	2,99445558	0,0102147954	19,8267231	0,67975986	1	11	0,0100686578	0,000232026563	0,022645954	0,00426695822	0,023044439	10,6705875
681,089661	44,3687401	6,85063457	44,8945007	-8,77728653	3933,7997	2,99445534	0,0100214845	34,11026	0,794255733	1	11	0,0100564836	0,000224002564	0,022013586	0,00339894788	0,0222744439	8,77728653
464,553894	45,7002144	5,79846859	46,0666008	-7,23108196	3934,2513	2,99445891	0,0098576406	59,0841103	0,936105967	1	11	0,0100530824	0,00021822931	0,0215350501	0,00273237913	0,0217077006	7,23108196
316,315765	46,7130585	4,98567295	46,978363	-6,09210205	3934,7002	2,99445581	0,00964446552	100,919594	1,13665152	1	11	0,0100507606	0,00021394447	0,0211661812	0,00225906121	0,0212863944	6,09210205
215,344498	47,4760361	4,44897079	47,6840363	-5,3535428	3935,1507	2,99446058	0,00946952589	166,121857	1,44610512	1	11	0,0100428043	0,000210611455	0,0208799001	0,00195665169	0,0209713783	5,3535428
146,737289	48,1298599	4,19488192	48,3123207	-4,98117352	3935,5977	2,99445391	0,00928721763	258,559143	1,94932199	1	11	0,0100404136	0,000207823046	0,0206204802	0,00179723103	0,0206986535	4,98117352
99,9040375	48,7372704	4,23088789	48,9205666	-4,96141529	3936,0492	2,99445987	0,009126544	376,535217	2,81634378	1	11	0,0100420229	0,000205272008	0,0203647111	0,00176786294	0,0204413012	4,96141529
68,1888962	49,3089981	4,57657433	49,5209274	-5,30266953	3936,5114	2,99445653	0,0090055028	509,994995	4,35581493	1	11	0,010039473	0,000202731928	0,0201070644	0,00186622073	0,0201934837	5,30266953
46,3802681	49,9174576	5,23241186	50,1909409	-5,98396444	3936,9501	2,99445772	0,00874971226	655,820435	7,12751436	1	11	0,0100400876	0,000200037844	0,0198153518	0,00207707053	0,0199239142	5,98396444
31,5869217	50,5162354	6,32993603	50,9112778	-7,14222145	3937,3800	2,99445033	0,00856600609	796,000793	12,3050718	1	11	0,0100380452	0,000197167421	0,0194896031	0,00244214456	0,0196420141	7,14222145
21,5220375	51,157074	8,06114769	51,7883034	-8,95482922	3937,8019	2,99446011	0,00860358682	917,360229	22,2264595	1	11	0,0100378748	0,000193825137	0,0190740246	0,00300561567	0,0193093792	8,95482922
14,6851501	51,8855515	10,5347033	52,9442215	-11,4771662	3938,2624	2,99446511	0,00863221474	1028,77271	40,7311745	1	11	0,0100383367	0,000189602128	0,0185101237	0,00375824585	0,018887803	11,4771662
9,9904108	53,0171089	14,1029377	54,8607941	-14,8961401	3938,7132	2,99446034	0,00835460238	1129,60657	74,6486893	1	11	0,0100392289	0,000182994598	0,0176153742	0,00468581775	0,0182279535	14,8961401
6,81718969	54,4681168	19,039793	57,6999969	-19,2675076	3939,0527	2,99445963	0,00785840861	1226,17517	133,513565	1	11	0,0100344149	0,000173906679	0,016360281	0,00571887568	0,0173310228	19,2675076
4,63925123	55,8410683	26,1518955	61,6615486	-25,0949745	3939,5376	2,99446082	0,00804444589	1311,80444	235,964447	1	11	0,0100390799	0,000162809403	0,0146867214	0,00687819207	0,0162175614	25,0949745
3,16039586	57,9527473	36,1566086	68,3068161	-31,9599609	3940,5925	2,99446964	0,00775129022	1392,80701	390,245789	1	12	0,0100429058	0,000147026411	0,0124206962	0,00774924876	0,0146398274	31,9599609
2,1522038	61,2519188	49,601223	78,8167419	-39,0002213	3941,5979	2,99446845	0,00744274631	1490,88562	590,46228	1	12	0,0100378115	0,000127356339	0,00986013282	0,00798464101	0,0126876598	39,0002213
1,46630979	63,4202003	70,3399353	94,7091751	-47,9614067	3943,0593	2,99446583	0,00719629647	1543,09436	851,162109	1	12	0,0100426795	0,000106037027	0,0070703919	0,00784183666	0,0105586387	47,9614067
0,998529792	65,8375397	97,8572464	117,943298	-56,0676651	3945,1911	2,99447036	0,00680429349	1628,79382	1121,25806	1	12	0,0100384764	8,51127334E-005	0,00473289704	0,00703471433	0,00847865082	56,0676651