File: Experimentelles/Rohdaten/Batteriemessungen/AlteZelle/Studenten_Batterietests/LiCoO2_LATP_Li/PEIS_GCPL/ZView-Export/LiCoO2_LATP_Li_03_OCV_C02.txt
EC-Lab ASCII FILE
Nb header lines : 46

Open Circuit Voltage

Run on channel : 2 (SN 6986)
Grouped channel(s) : 2
User :
CE vs. WE compliance from -10 V to 10 V
Electrode connection : standard
Ewe ctrl range : min = -10,00 V, max = 10,00 V
Acquisition started on : 02.12.2015 14:59:29
Saved on :
	File : LiCoO2_LATP_Li_03_OCV_C02.mpr
	Directory : C:\Hupfer\Studenten Batterietests\LiCoO2_LATP_Li\PEIS_GCPL\
	Host : 192.168.0.2
Device : VMP3 (SN 0324)
Address : 192.168.0.1
EC-Lab for windows v10.33 (software)
Internet server v10.33 (firmware)
Command interpretor v10.32 (firmware)
Electrode material :
Initial state :
Electrolyte :
Comments :
Mass of active material : 0,001 mg
 at x = 0,000
Molecular weight of active material (at x = 0) : 0,001 g/mol
Atomic weight of intercalated ion : 0,001 g/mol
Acquisition started at : xo = 0,000
Number of e- transfered per intercalated ion : 1
for DX = 1, DQ = 26,801 mA.h
Battery capacity : 0,000 A.h
Electrode surface area : 0,001 cm²
Characteristic mass : 0,001 g
tR (h:m:s)          0:10:0,0000
dER/dt (mV/h)       0,0
dER (mV)            0,00
dtR (s)             5,0000
E range min (V)     -10,000
E range max (V)     10,000

Number of loops : 1
Loop 0 from point number 0 to 120

mode	error	time/s	Ewe/V
3	0	612,8440	1,46633637
3	0	617,8440	1,46935475
3	0	622,8440	1,47309315
3	0	627,8440	1,47624028
3	0	632,8440	1,47906315
3	0	637,8440	1,481619
3	0	642,8440	1,48430824
3	0	647,8440	1,48629189
3	0	652,8440	1,48804665
3	0	657,8440	1,48917198
3	0	662,8440	1,49069786
3	0	667,8440	1,49287224
3	0	672,8440	1,49506569
3	0	677,8440	1,49746895
3	0	682,8440	1,50015831
3	0	687,8440	1,50235176
3	0	692,8440	1,50423992
3	0	697,8440	1,50628078
3	0	702,8440	1,50879848
3	0	707,8440	1,51152599
3	0	712,8440	1,51379573
3	0	717,8440	1,51587474
3	0	722,8440	1,51774395
3	0	727,8440	1,51963222
3	0	732,8440	1,52117717
3	0	737,8440	1,52340877
3	0	742,8440	1,52554488
3	0	747,8440	1,52785277
3	0	752,8440	1,52987456
3	0	757,8440	1,53191543
3	0	762,8440	1,53378463
3	0	767,8440	1,53548217
3	0	772,8440	1,53691268
3	0	777,8440	1,53815246
3	0	782,8440	1,53958297
3	0	787,8440	1,54116607
3	0	792,8440	1,54295897
3	0	797,8440	1,54484713
3	0	802,8440	1,54723132
3	0	807,8440	1,54988253
3	0	812,8440	1,55188525
3	0	817,8440	1,55409777
3	0	822,8440	1,55610049
3	0	827,8440	1,55793154
3	0	832,8440	1,55980074
3	0	837,8440	1,5606972
3	0	842,8440	1,56144106
3	0	847,8440	1,56247103
3	0	852,8440	1,56367266
3	0	857,8440	1,56546545
3	0	862,8440	1,56825018
3	0	867,8440	1,5711112
3	0	872,8440	1,57341909
3	0	877,8440	1,57517385
3	0	882,8440	1,57580328
3	0	887,8440	1,5761466
3	0	892,8440	1,57683325
3	0	897,8440	1,57870245
3	0	902,8440	1,5815444
3	0	907,8440	1,58425283
3	0	912,8440	1,58661783
3	0	917,8440	1,5885061
3	0	922,8440	1,58978403
3	0	927,8440	1,59050882
3	0	932,8440	1,59129083
3	0	937,8440	1,59239709
3	0	942,8440	1,59317911
3	0	947,8440	1,5945524
3	0	952,8440	1,5961355
3	0	957,8440	1,59766138
3	0	962,8440	1,59920633
3	0	967,8440	1,60075128
3	0	972,8440	1,60265863
3	0	977,8440	1,60471857
3	0	982,8440	1,60729337
3	0	987,8440	1,60920072
3	0	992,8440	1,61105084
3	0	997,8440	1,61192822
3	0	1002,8440	1,61278653
3	0	1007,8440	1,61372113
3	0	1012,8440	1,61517072
3	0	1017,8440	1,61625791
3	0	1022,8440	1,61742139
3	0	1027,8440	1,61814618
3	0	1032,8440	1,61909986
3	0	1037,8440	1,62053037
3	0	1042,8440	1,62224698
3	0	1047,8440	1,62472653
3	0	1052,8440	1,62724411
3	0	1057,8440	1,62949479
3	0	1062,8440	1,63018143
3	0	1067,8440	1,63058197
3	0	1072,8440	1,63102067
3	0	1077,8440	1,63161194
3	0	1082,8440	1,63281357
3	0	1087,8440	1,63433945
3	0	1092,8440	1,63632309
3	0	1097,8440	1,63853562
3	0	1102,8440	1,64051926
3	0	1107,8440	1,64261734
3	0	1112,8440	1,64338028
3	0	1117,8440	1,64376175
3	0	1122,8440	1,64372361
3	0	1127,8440	1,64435303
3	0	1132,8440	1,64532578
3	0	1137,8440	1,64685154
3	0	1142,8440	1,6482439
3	0	1147,8440	1,65034199
3	0	1152,8440	1,65236378
3	0	1157,8440	1,65436649
3	0	1162,8440	1,65617847
3	0	1167,8440	1,65707493
3	0	1172,8440	1,65722752
3	0	1177,8440	1,65732288
3	0	1182,8440	1,65781879
3	0	1187,8440	1,65894413
3	0	1192,8440	1,66035557
3	0	1197,8440	1,66197681
3	0	1202,8440	1,6639986
3	0	1207,8440	1,66621113
3	0	1212,8440	1,66809928