File: Experimentelles/Rohdaten/Batteriemessungen/AlteZelle/Studenten_Batterietests/LiCoO2 vs Li 300µm GCPL/ZView-Export/LiCoO2 vs Li 300µm GCPL_02_GCPL_C04_loop1.txt
EC-Lab ASCII FILE
Nb header lines : 3
mode	ox/red	error	control changes	Ns changes	counter inc.	Ns	time/s	control/V/mA	Ewe/V	dq/mA.h	<I>/mA	P/W	(Q-Qo)/mA.h	x	Capacity/mA.h
1	0	0	1	1	0	1	11285,40	-0,300000012	4,18844891	0	0	0	0	0	0
1	0	0	1	0	0	1	11515,40	-0,300000012	4,09058428	-0,0008329055424812768	-0,29984599892355315	0,00122654531	-0,01915278895983033	0,00071461630728990285	0,01915278895983033
1	0	0	1	0	0	1	11745,40	-0,300000012	4,07120228	-0,00083291376384927168	-0,29984895861606714	0,00122074573	-0,038309737883885043	0,0014293878284381491	0,038309737883885043
1	0	0	1	0	0	1	11975,40	-0,300000012	4,05861139	-0,00083289787312183117	-0,2998432379541193	0,00121694722	-0,057466467225294336	0,0021441511566626624	0,057466467225294336
1	0	0	1	0	0	1	12205,40	-0,300000012	4,0308733	-0,00083290580861601562	-0,29984609473206029	0,00120864157	-0,076623182177435366	0,0028589139480042304	0,076623182177435366
1	0	0	1	0	0	1	12435,40	-0,300000012	3,99968243	-0,00083292416237956954	-0,29985270208701971	0,00119931553	-0,095780069654959091	0,0035736831764997894	0,095780069654959091
1	0	0	1	0	0	1	12665,40	-0,300000012	3,98234153	-0,00083291338183648051	-0,29984882109146067	0,00119410036	-0,11493729958130022	0,0042884651822211533	0,11493729958130022
1	0	0	1	0	0	1	12895,40	-0,300000012	3,92373729	-0,00083290733393695629	-0,29984664384760557	0,00117651944	-0,13409429045597976	0,0050032382686036141	0,13409429045597976
1	0	0	1	0	0	1	13125,40	-0,300000012	3,90105462	-0,00083290790623095309	-0,29984684987344691	0,00116971892	-0,15325128824705651	0,0057180116130461555	0,15325128824705651
1	0	0	1	0	0	1	13355,40	-0,300000012	3,90004349	-0,0008329311536517408	-0,29985521894503187	0,00116944837	-0,17240845515994662	0,0064327912676509402	0,17240845515994662
1	0	0	1	0	0	1	13585,40	-0,300000012	3,90231371	-0,0008329155731681321	-0,29984960997086477	0,00117010728	-0,1915655312345584	0,0071475675329574246	0,1915655312345584
1	0	0	1	0	0	1	13815,40	-0,300000012	3,86408353	-0,00083293877872659098	-0,29985796397201114	0,00115867623	-0,21072271127168106	0,0078623476772449702	0,21072271127168106
1	0	0	1	0	0	1	14045,40	-0,300000012	3,85834146	-0,00083292065869271757	-0,29985144075973773	0,0011569293	-0,22988003307351898	0,0085771331109646477	0,22988003307351898
1	0	0	1	0	0	1	14275,40	-0,300000012	3,84470129	-0,00083292076305548339	-0,29985147833033389	0,0011528394	-0,24903715904109274	0,0092919112378446272	0,24903715904109274
1	0	0	1	0	0	1	14505,40	-0,300000012	3,8348577	-0,00083292248898744589	-0,29985209966584794	0,00114989013	-0,26819426297232768	0,010006688542519178	0,26819426297232768
1	0	0	1	0	0	1	14735,40	-0,300000012	3,79384232	-0,00083290912765761216	-0,29984728958704954	0,00113757339	-0,28735129982610797	0,010721463344443707	0,28735129982610797
1	0	0	1	0	0	1	14965,40	-0,300000012	3,78060269	-0,00083290028002030323	-0,29984410443757978	0,0011335914	-0,30650830277604128	0,011436236881370123	0,30650830277604128
1	0	0	1	0	0	1	15195,40	-0,300000012	3,76904225	-0,00083291897247566118	-0,29985083372159008	0,00113015051	-0,32566528997118541	0,01215100983046417	0,32566528997118541
1	0	0	1	0	0	1	15425,40	-0,300000012	3,7870698	-0,00083291520933972467	-0,29984947899263654	0,00113555091	-0,34482225946585766	0,012865782119129813	0,34482225946585766
1	0	0	1	0	0	1	15655,40	-0,300000012	3,78916836	-0,00083292602341208192	-0,29985337205873222	0,00113619491	-0,36397914383234502	0,013580551231548424	0,36397914383234502
1	0	0	1	0	0	1	15885,40	-0,300000012	3,75309372	-0,00083291398549576602	-0,29984903840880614	0,00112536154	-0,38313609262852614	0,014295322747925534	0,38313609262852614
1	0	0	1	0	0	1	16115,40	-0,300000012	3,75971365	-0,00083291051874889267	-0,29984779037991654	0,00112734188	-0,40229302732346522	0,015010093738166342	0,40229302732346522
1	0	0	1	0	0	1	16345,40	-0,300000012	3,75206375	-0,00083290801755256128	-0,29984688994922637	0,00112504466	-0,42144993509574464	0,015724863723886525	0,42144993509574464
1	0	0	1	0	0	1	16575,40	-0,300000012	3,74891591	-0,00083290375854406093	-0,29984535670614771	0,00112409506	-0,44060696334010906	0,016439638204582173	0,44060696334010906
1	0	0	1	0	0	1	16805,40	-0,300000012	3,73777509	-0,00083291310678588019	-0,29984872207324339	0,00112076709	-0,45976387129972442	0,017154408197292109	0,45976387129972442
1	0	0	1	0	0	1	17035,40	-0,300000012	3,72932386	-0,00083291295340657229	-0,29984866685669184	0,00111823285	-0,47892095356407488	0,017869184693546067	0,47892095356407488
1	0	0	1	0	0	1	17265,40	-0,300000012	3,71663785	-0,00083290628575781978	-0,29984626650311194	0,00111442001	-0,49807772952228026	0,01858394976110592	0,49807772952228026
1	0	0	1	0	0	1	17495,40	-0,300000012	3,68746901	-0,00083293230479293402	-0,29985563335586643	0,0011057083	-0,51723464281713062	0,01929871995288065	0,51723464281713062
1	0	0	1	0	0	1	17725,40	-0,300000012	3,62268376	-0,00083291027847097971	-0,29984770387986688	0,00108625344	-0,53639176859293978	0,020013498072605635	0,53639176859293978
1	0	0	1	0	0	1	17955,40	-0,300000012	3,25173235	-0,00083291714141766234	-0,29985017454070253	0,000975032512	-0,55554887179408563	0,020728275350039578	0,55554887179408563
1	1	0	0	0	0	2	18170,44	0,300000012	2,59133124	0,00083383117693993779	0,3001792273327056	0,000777863839	-0,57179248336072653	0,021334346337358979	0,00083384730365375667
1	1	0	0	0	0	2	18400,44	0,300000012	3,8422451	0,00083382159642544051	0,3001757783474448	0,00115334895	-0,55261436467970957	0,02061878494411543	0,02001196598467065
1	1	0	0	0	0	2	18630,44	0,300000012	3,86826611	0,00083383062299589312	0,30017902791284704	0,0011611724	-0,53343645056853408	0,019903231183647712	0,039189880095846112
1	1	0	0	0	0	2	18860,44	0,300000012	3,87622118	0,00083382139526969856	0,30017570593137683	0,00116354739	-0,51425839488732538	0,019187672141011715	0,058367935777054886
1	1	0	0	0	0	2	19090,44	0,300000012	3,86572886	0,00083383261730935834	0,3001797458657033	0,00116041349	-0,49508037256593882	0,018472114343075536	0,07754595809844137
1	1	0	0	0	0	2	19320,44	0,300000012	3,86406922	0,0008338355672127671	0,30018080783094323	0,00115991943	-0,475902315441296	0,017756555246583066	0,096724015223084211
1	1	0	0	0	0	2	19550,44	0,300000012	3,86422181	0,00083382168170975309	0,30017580904979776	0,00115994585	-0,45672433502866381	0,017040999012318858	0,11590199563571645
1	1	0	0	0	0	2	19780,44	0,300000012	3,87625933	0,00083382908234000218	0,30017847327671962	0,00116356963	-0,43754622613752602	0,016325437984348864	0,13508010452685426
1	1	0	0	0	0	2	20010,44	0,300000012	3,87429452	0,00083383226671814912	0,30017961965286643	0,00116298429	-0,41836806144461094	0,015609874874339533	0,15425826921976944
1	1	0	0	0	0	2	20240,44	0,300000012	3,8886404	0,00083385436070627635	0,30018757348868851	0,00116732158	-0,39918979463199008	0,014894307954106678	0,17343653603239034
1	1	0	0	0	0	2	20470,44	0,300000012	3,88640833	0,00083382232199774848	0,30017603955347885	0,00116660667	-0,38001138174271488	0,014178735583557448	0,1926149489216657
1	1	0	0	0	0	2	20700,44	0,300000012	3,9077363	0,00083383936643600461	0,30018217555132538	0,0011730328	-0,36083330836854784	0,013463175880773386	0,21179302229583283
1	1	0	0	0	0	2	20930,44	0,300000012	3,89857936	0,00083384566789534362	0,30018444407671488	0,00117029285	-0,34165522161259174	0,012747615678696784	0,23097110905178909
1	1	0	0	0	0	2	21160,44	0,300000012	3,8984077	0,00083384843645989888	0,30018544075996685	0,00117024523	-0,32247693749258509	0,012032048112702093	0,25014939317179581
1	1	0	0	0	0	2	21390,44	0,300000012	3,90363479	0,0008338298405590985	0,30017874623559757	0,0011717882	-0,30329853083992102	0,01131647597484921	0,26932779982445994
1	1	0	0	0	0	2	21620,44	0,300000012	3,91082692	0,00083383499700327718	0,30018060255552442	0,00117395434	-0,28412036487185565	0,010600912817262307	0,28850596579252531
1	1	0	0	0	0	2	21850,44	0,300000012	3,9247148	0,00083383914226459123	0,30018209484961555	0,00117812911	-0,26494200564742522	0,0098853424490205862	0,30768432501695578
1	1	0	0	0	0	2	22080,44	0,300000012	3,92584038	0,00083383682936926682	0,3001812622072887	0,00117846369	-0,24576366055604586	0,0091697726081020045	0,3268626701083351
1	1	0	0	0	0	2	22310,44	0,300000012	3,95504713	0,0008338277764717737	0,30017800316415174	0,00118721812	-0,22658540983542733	0,008454206288283392	0,3460409208289536
1	1	0	0	0	0	2	22540,44	0,300000012	3,9754405	0,00083382510009076864	0,30017703966697824	0,00119333598	-0,2074070154017104	0,0077386346063358554	0,36521931526267053
1	1	0	0	0	0	2	22770,44	0,300000012	3,99062586	0,00083383670662343501	0,30018121801878867	0,00119791098	-0,1882286601226008	0,0070230643852993613	0,38439767054178022
1	1	0	0	0	0	2	23000,44	0,300000012	4,00329304	0,00083381749699678682	0,30017430255311162	0,00120168575	-0,1690504666059855	0,0063075001998390208	0,40357586405839552
1	1	0	0	0	0	2	23230,44	0,300000012	4,01357555	0,00083383034641875162	0,30017892834507494	0,00120479078	-0,14987225776087334	0,0055919354424518541	0,42275407290350758
1	1	0	0	0	0	2	23460,44	0,300000012	4,03599072	0,00083383598319855002	0,30018095758582694	0,0012115275	-0,1306940561607307	0,0048763709553842413	0,44193227450365018
1	1	0	0	0	0	2	23690,44	0,300000012	4,06552219	0,00083383876157800358	0,3001819578024423	0,00122039637	-0,11151586418320989	0,0041608068273495853	0,46111046648117088
1	1	0	0	0	0	2	23920,44	0,300000012	4,06775379	0,0008338286242485047	0,3001783083637785	0,00122105144	-0,092337664323291085	0,0034452424052120627	0,48028866634108973
1	1	0	0	0	0	2	24150,44	0,300000012	4,09343147	0,00083382448386483725	0,30017681782564019	0,00122875324	-0,073159576557920282	0,002729682165472839	0,49946675410646061
1	1	0	0	0	0	2	24380,44	0,300000012	4,12889576	0,00083383091656201408	0,30017913359665197	0,00123940839	-0,053981674566168838	0,002014128857197129	0,51864465609821197
1	1	0	0	0	0	2	24610,44	0,300000012	4,15980053	0,00083382532935672333	0,30017712220272294	0,00124867691	-0,034803619234557869	0,0012985698276050918	0,53782271142982285
1	1	0	0	0	0	2	24840,44	0,300000012	4,18662262	0,00083381862129436595	0,30017470730024499	0,00125671818	-0,015625740503265718	0,00058301738720839206	0,55700059016111494
1	1	0	0	0	0	2	24964,70	0,300000012	4,20000982	0,0003554130249056551	0,30017992331940634	0,00126075861	-0,0052644557695629798	0,00019642392289845645	0,5673618748948176