File: Experimentelles/Rohdaten/Batteriemessungen/AlteZelle/Studenten_Batterietests/LiCoO2 vs Li 300µm GCPL/ZView-Export/LiCoO2 vs Li 300µm GCPL_02_GCPL_C04_loop5.txt
EC-Lab ASCII FILE
Nb header lines : 3
mode	ox/red	error	control changes	Ns changes	counter inc.	Ns	time/s	control/V/mA	Ewe/V	dq/mA.h	<I>/mA	P/W	(Q-Qo)/mA.h	x	Capacity/mA.h
1	0	0	1	1	0	1	63247,18	-0,300000012	4,18455744	0	0	0	0	0	0
1	0	0	1	0	0	1	63437,18	-0,300000012	4,08054972	-0,0008328781525923145	-0,29983613437474496	0,00122349628	-0,015820525506351341	0,00059028507756473869	0,015820525506351341
1	0	0	1	0	0	1	63627,18	-0,300000012	4,04863405	-0,00083287288101514176	-0,29983423660696621	0,00121391914	-0,03164523398228217	0,0011807262273485504	0,03164523398228217
1	0	0	1	0	0	1	63817,18	-0,300000012	4,02150679	-0,00083287983718348877	-0,29983674082756653	0,00120579544	-0,047469960076428723	0,001771168034491679	0,047469960076428723
1	0	0	1	0	0	1	64007,18	-0,300000012	3,99746966	-0,00083289245545864102	-0,29984128340661286	0,00119860645	-0,063294809313112435	0,0023616144362484355	0,063294809313112435
1	0	0	1	0	0	1	64197,18	-0,300000012	3,97608423	-0,00083288220792512115	-0,29983759429455251	0,00119217951	-0,079119789277024333	0,00295206571561384	0,079119789277024333
1	0	0	1	0	0	1	64387,18	-0,300000012	3,95567203	-0,00083289145528607898	-0,2998409233444912	0,00118607236	-0,094944742624914266	0,0035425160018996806	0,094944742624914266
1	0	0	1	0	0	1	64577,18	-0,300000012	3,93770146	-0,00083289371579223219	-0,29984173712670483	0,00118068722	-0,11076966166876818	0,0041329650082558144	0,11076966166876818
1	0	0	1	0	0	1	64767,18	-0,300000012	3,92081833	-0,00083289529450734451	-0,29984230546414426	0,00117562723	-0,12659461397891803	0,004723415255822176	0,12659461397891803
1	0	0	1	0	0	1	64957,18	-0,300000012	3,90740728	-0,00083288875974383616	-0,29983995294928557	0,00117159681	-0,14241963866549293	0,0053138682038502675	0,14241963866549293
1	0	0	1	0	0	1	65147,18	-0,300000012	3,89433956	-0,0008329030865563287	-0,29984511060177325	0,00116769865	-0,15824456225580035	0,005904317379840695	0,15824456225580035
1	0	0	1	0	0	1	65337,18	-0,300000012	3,88003182	-0,0008328994335300393	-0,29984379551231155	0,0011634035	-0,17406971474985341	0,0064947750965376358	0,17406971474985341
1	0	0	1	0	0	1	65527,18	-0,300000012	3,86850929	-0,00083289024252030592	-0,2998404867488137	0,00115993572	-0,18989482089596394	0,0070852310839305254	0,18989482089596394
1	0	0	1	0	0	1	65717,18	-0,300000012	3,85626197	-0,00083290290751556557	-0,29983912141359834	0,00115625816	-0,20572002771826483	0,0076756908276874381	0,20572002771826483
1	0	0	1	0	0	1	65907,19	-0,300000012	3,84893656	-0,00083290948210325504	-0,29984148709967501	0,00115407084	-0,22154531978887382	0,0082661537521733427	0,22154531978887382
1	0	0	1	0	0	1	66097,19	-0,300000012	3,83556342	-0,00083292166616684864	-0,29984587417121261	0,00115007791	-0,23737071172542602	0,0088566204027918592	0,23737071172542602
1	0	0	1	0	0	1	66287,20	-0,300000012	3,82211423	-0,00083292615778247514	-0,29984749099173069	0,00114605133	-0,25319627511278848	0,0094470934504706266	0,25319627511278848
1	0	0	1	0	0	1	66477,20	-0,300000012	3,80803537	-0,00083291634298695462	-0,29984395697073446	0,00114181638	-0,2690217713920215	0,010037563994254858	0,2690217713920215
1	0	0	1	0	0	1	66667,20	-0,300000012	3,79279304	-0,00083291872810158464	-0,29984481670896288	0,00113724929	-0,28484726492301677	0,01062803443549864	0,28484726492301677
1	0	0	1	0	0	1	66857,21	-0,300000012	3,77774119	-0,00083291398965153421	-0,29984310978672794	0,0011327297	-0,30067261818274739	0,011218499643032942	0,30067261818274739
1	0	0	1	0	0	1	67047,21	-0,300000012	3,75494432	-0,0008329187650630871	-0,29984482991710451	0,00112590066	-0,3164980971912928	0,011808969542424597	0,3164980971912928
1	0	0	1	0	0	1	67237,21	-0,300000012	3,7314415	-0,00083291256823639078	-0,29984259871569069	0,00111884507	-0,3323235052733591	0,012399436795453952	0,3323235052733591
1	0	0	1	0	0	1	67427,22	-0,300000012	3,70244455	-0,00083292334196633754	-0,29984647655045773	0,00111016491	-0,34814911202148147	0,012989911460980971	0,34814911202148147
1	0	0	1	0	0	1	67617,22	-0,300000012	3,66900253	-0,00083292202996048666	-0,29984600535773235	0,00110013573	-0,36397465470919392	0,013580383736327966	0,36397465470919392
1	0	0	1	0	0	1	67807,23	-0,300000012	3,62548804	-0,00083292187341219853	-0,29984594788098067	0,00108708791	-0,37980028705639686	0,014170859356991096	0,37980028705639686
1	0	0	1	0	0	1	67997,23	-0,300000012	3,57052732	-0,00083291747373342515	-0,29984436514840339	0,00107060245	-0,39562581139875328	0,014761330947848195	0,39562581139875328
1	0	0	1	0	0	1	68187,23	-0,300000012	3,49185395	-0,000832925954427984	-0,29984741752027392	0,00104702334	-0,4114513125595671	0,015351801673770765	0,4114513125595671
1	0	0	1	0	0	1	68377,24	-0,300000012	3,36562181	-0,00083292993212739622	-0,29984884899252678	0,00100917788	-0,4272767895329799	0,015942271497228886	0,4272767895329799
1	0	0	1	0	0	1	68567,24	-0,300000012	3,14175367	-0,00083291043288177907	-0,29984183048840909	0,000942029175	-0,44310225637876058	0,016532740942811434	0,44310225637876058
1	0	0	1	0	0	1	68757,24	-0,300000012	2,71916103	-0,00083291590653691021	-0,29984379985182394	0,000815323554	-0,4589276071369239	0,017123206057008899	0,4589276071369239
1	0	0	1	0	0	1	68947,25	-0,300000012	2,02968192	-0,00083291121093432115	-0,29984211058178912	0,000608584087	-0,47475287101680749	0,017713667929660934	0,47475287101680749
1	1	0	0	0	0	2	69125,19	0,300000012	3,92204404	0,00083385601904491584	0,3001822336654615	0,00117732794	-0,46123844762598029	0,017209426622613677	0,014175624796261389
1	1	0	0	0	0	2	69315,19	0,300000012	3,94154072	0,00083385499628219341	0,30018186659290675	0,00118317909	-0,445395244313032	0,016618295405594166	0,030018828109209741
1	1	0	0	0	0	2	69505,20	0,300000012	3,95209026	0,00083386002327501773	0,30018367531356582	0,00118635304	-0,42955195658675885	0,016027161039000016	0,045862115835482886
1	1	0	0	0	0	2	69695,20	0,300000012	3,96138072	0,00083385635578632358	0,30018235526388512	0,00118913664	-0,41370871114044461	0,015436028249927978	0,061705361281797299
1	1	0	0	0	0	2	69885,21	0,300000012	3,96962214	0,00083385791019598643	0,30018291558463706	0,0011916128	-0,39786553557130938	0,014844898068067437	0,07754853685093257
1	1	0	0	0	0	2	70075,21	0,300000012	3,97790146	0,00083386052705016397	0,30018385651178016	0,00119410176	-0,38202222693909619	0,014253762921444557	0,093391845483145792
1	1	0	0	0	0	2	70265,21	0,300000012	3,98614264	0,000833873943840464	0,30018868758258522	0,00119659491	-0,36617888336930598	0,013662626471253701	0,10923518905293611
1	1	0	0	0	0	2	70455,22	0,300000012	3,99381161	0,00083385556732283699	0,30018207105921082	0,0011988706	-0,35033551342775341	0,013071489037096934	0,12507855899448858
1	1	0	0	0	0	2	70645,22	0,300000012	4,00151873	0,00083385099187990029	0,30018042443901069	0,0012011776	-0,33449229656386451	0,012480357314473616	0,14092177585837742
1	1	0	0	0	0	2	70835,22	0,300000012	4,00943565	0,00083386053012808166	0,30018385873805856	0,00120356784	-0,318648871944968	0,011889217840231629	0,15676520047727392
1	1	0	0	0	0	2	71025,23	0,300000012	4,01800108	0,00083385662266115341	0,30018245095951757	0,0012061334	-0,30280554229185389	0,011298081909290672	0,172608530130388
1	1	0	0	0	0	2	71215,23	0,300000012	4,02530766	0,00083385813210407885	0,30018299547346624	0,00120832887	-0,28696226616039789	0,010706947975314736	0,18845180626184413
1	1	0	0	0	0	2	71405,24	0,300000012	4,03431225	0,00083386228000952141	0,30018448756467584	0,00121103798	-0,27111897738441082	0,010115813569554347	0,20429509503783123
1	1	0	0	0	0	2	71595,24	0,300000012	4,04209566	0,00083387618363234726	0,30018949341646419	0,00121339469	-0,25527533913991085	0,0095246661246538765	0,22013873328233094
1	1	0	0	0	0	2	71785,24	0,300000012	4,05006981	0,0008338777520921495	0,30019005842475654	0,00121579075	-0,23943165159288611	0,00893351684020992	0,23598242082935565
1	1	0	0	0	0	2	71975,25	0,300000012	4,05846357	0,00083387618970705408	0,30018949496030963	0,00121830811	-0,2235881274450097	0,0083423736524078784	0,25182594497723203
1	1	0	0	0	0	2	72165,25	0,300000012	4,0695281	0,00083387666768332326	0,30018966814314246	0,00122163026	-0,20774457871731517	0,0077512295474997734	0,26766949370492653
1	1	0	0	0	0	2	72355,25	0,300000012	4,07921934	0,00083387550572719834	0,30018924873242829	0,00122453785	-0,19190098840729962	0,0071600838910993651	0,28351308401494214
1	1	0	0	0	0	2	72545,26	0,300000012	4,08757496	0,0008338675354603264	0,30018638025837453	0,00122703437	-0,17605760637617181	0,0065689460058642918	0,29935646604606989
1	1	0	0	0	0	2	72735,26	0,300000012	4,09776211	0,00083386857128805581	0,30018675326430835	0,00123009388	-0,16021428563828339	0,0059778104075623898	0,31519978678395821
1	1	0	0	0	0	2	72925,27	0,300000012	4,1087122	0,00083388031007349491	0,30019097825941574	0,00123339833	-0,14437074053972368	0,0053866664380621875	0,33104333188251789
1	1	0	0	0	0	2	73115,27	0,300000012	4,1191473	0,00083388943161732621	0,3001942630720752	0,00123654434	-0,12852708642421898	0,0047955184009931904	0,34688698599802253
1	1	0	0	0	0	2	73305,27	0,300000012	4,13049793	0,00083386716474592691	0,30018624603502515	0,00123991864	-0,11268350384052333	0,0042043730328721651	0,36273056858171827
1	1	0	0	0	0	2	73495,28	0,300000012	4,13898754	0,00083386296030051174	0,30018473336967802	0,00124246092	-0,096840119435340838	0,00361323505905792	0,37857395298690067
1	1	0	0	0	0	2	73685,28	0,300000012	4,15270376	0,0008338445409288009	0,30017810237707763	0,0012465507	-0,080996738164461952	0,0030220972021887571	0,39441733425777965
1	1	0	0	0	0	2	73875,29	0,300000012	4,16594315	0,00083385433299177229	0,30018162669832666	0,00125053956	-0,065153539247866112	0,0024309661492030714	0,41026053317437542
1	1	0	0	0	0	2	74065,29	0,300000012	4,18036509	0,00083385852107736794	0,30018313549409402	0,0012548751	-0,049310401257855014	0,0018398373694701795	0,4261036711643865
1	1	0	0	0	0	2	74255,29	0,300000012	4,19604635	0,00083387151540650266	0,30018781224537043	0,00125960202	-0,033467070461399667	0,0012487013958696221	0,44194700196084186
1	1	0	0	0	0	2	74296,39	0,300000012	4,19991446	9,1324806044499085E-005	0,30019117900192179	0,00126077724	-0,030040254596734029	0,001120842288556015	0,44537381782550752