File: Experimentelles/Rohdaten/Batteriemessungen/AlteZelle/Studenten_Batterietests/LiCoO2 vs Li 300µm GCPL/ZView-Export/LiCoO2 vs Li 300µm GCPL_02_GCPL_C04_loop0.txt
EC-Lab ASCII FILE
Nb header lines : 3
mode	ox/red	error	control changes	Ns changes	counter inc.	Ns	time/s	control/V/mA	Ewe/V	dq/mA.h	<I>/mA	P/W	(Q-Qo)/mA.h	x	Capacity/mA.h
1	0	0	1	1	0	1	3600,00	-0,300000012	2,81476045	0	0	0	0	0	0
1	1	0	0	0	0	2	3713,63	0,300000012	3,83617878	0,00083384029978017011	0,30018251550410938	0,00115155382	0,0038739438581042861	-0,00014454205391878387	0,0066708465419858688
1	1	0	0	0	0	2	3843,63	0,300000012	3,85237503	0,00083383102267318298	0,3001791757455097	0,00115640275	0,01471391209741831	-0,00054899584341989498	0,017510814781299894
1	1	0	0	0	0	2	3973,63	0,300000012	3,87103224	0,00083383404065171878	0,30018026221781005	0,00116200745	0,025553671683923075	-0,00095344184780415565	0,028350574367804656
1	1	0	0	0	0	2	4103,63	0,300000012	3,87238669	0,00083382682627605069	0,30017766202891027	0,00116240396	0,036393452384821901	-0,0013578886399948477	0,039190355068703482
1	1	0	0	0	0	2	4233,63	0,300000012	3,86809444	0,00083382517364621158	0,30017706614693798	0,00116111326	0,047233190360369619	-0,0017623338380452448	0,0500300930442512
1	1	0	0	0	0	2	4363,63	0,300000012	3,87656474	0,00083381612154013581	0,30017380738871123	0,0011636432	0,058072895398145574	-0,0021667778071430922	0,060869798082027162
1	1	0	0	0	0	2	4493,63	0,300000012	3,87471414	0,0008338237132545975	0,30017654040595053	0,00116309826	0,068912636211270093	-0,0025712231110672954	0,071709538895151667
1	1	0	0	0	0	2	4623,63	0,300000012	3,87374115	0,0008338320713192224	0,30017954930925197	0,00116281782	0,079752389298514189	-0,0029756688729554016	0,082549291982395763
1	1	0	0	0	0	2	4753,63	0,300000012	3,87160468	0,00083384452104402918	0,30018403121023661	0,00116219395	0,090592302857831744	-0,0033801206222723264	0,093389205541713318
1	1	0	0	0	0	2	4883,63	0,300000012	3,87168097	0,00083384298852251635	0,30018347950248538	0,00116221467	0,10143219856987461	-0,0037845717056834368	0,10422910125375618
1	1	0	0	0	0	2	5013,63	0,300000012	3,87824345	0,00083384717991948134	0,30018498840541101	0,00116419047	0,11227212288702258	-0,0041890238563894784	0,11506902557090416
1	1	0	0	0	0	2	5143,63	0,300000012	3,88406181	0,00083384469347033242	0,30018409328370656	0,00116593356	0,12311201381268667	-0,0045934747612143597	0,12590891649656824
1	1	0	0	0	0	2	5273,63	0,300000012	3,87748027	0,00083382717366516595	0,3001777861537703	0,00116393343	0,13395194492834706	-0,004997927165582041	0,13674884761222864
1	1	0	0	0	0	2	5403,63	0,300000012	3,88039923	0,00083384630620479578	0,30018467386812045	0,00116483634	0,1447917982981344	-0,0054023766691466682	0,147588700982016
1	1	0	0	0	0	2	5533,63	0,300000012	3,8793118	0,00083384507092502387	0,30018422916739712	0,00116450817	0,15563159679800336	-0,0058068241254408666	0,15842849948188496
1	1	0	0	0	0	2	5663,63	0,300000012	3,88249755	0,00083384805723528077	0,30018530423910259	0,00116546871	0,16647157217405802	-0,0062112781812233651	0,16926847485793958
1	1	0	0	0	0	2	5793,63	0,300000012	3,88730502	0,00083385160037047334	0,30018657976778739	0,0011669168	0,17731167468723552	-0,0066157369806628557	0,18010857737111709
1	1	0	0	0	0	2	5923,63	0,300000012	3,89396286	0,00083385044080681267	0,30018616232486451	0,00116891379	0,18815164615806835	-0,007020190890736279	0,19094854884194992
1	1	0	0	0	0	2	6053,63	0,300000012	3,88743854	0,00083385365868608154	0,30018732076141536	0,00116695976	0,19899162850902867	-0,0074246452067618867	0,20178853119291027
1	1	0	0	0	0	2	6183,63	0,300000012	3,88177276	0,00083384996346135936	0,3001859904804992	0,00116525381	0,20983171331923594	-0,0078291033456797555	0,21262861600311754
1	1	0	0	0	0	2	6313,63	0,300000012	3,88448167	0,00083383507916828006	0,30018063213492582	0,00116604613	0,22067170909969235	-0,0082335581627779174	0,22346861178357395
1	1	0	0	0	0	2	6443,63	0,300000012	3,88957524	0,00083384575224916147	0,30018447444408966	0,00116759015	0,23151152575134627	-0,0086380062963396198	0,23430842843522784
1	1	0	0	0	0	2	6573,63	0,300000012	3,89661455	0,00083384982583589018	0,30018594093532973	0,00116970891	0,24235153781752842	-0,009042461721080105	0,24514844050140998
1	1	0	0	0	0	2	6703,63	0,300000012	3,89838862	0,00083383678667578432	0,30018124683763475	0,00117022311	0,25319146740739261	-0,0094469140685182784	0,25598837009127418
1	1	0	0	0	0	2	6833,63	0,300000012	3,89110136	0,00083383967469301478	0,30018228652385037	0,00116803974	0,26403140444580592	-0,0098513666938718336	0,26682830712968746
1	1	0	0	0	0	2	6963,63	0,300000012	3,89209318	0,0008338444023281335	0,30018398847251373	0,00116834405	0,27487138677230349	-0,010255821008984704	0,27766828945618506
1	1	0	0	0	0	2	7093,63	0,300000012	3,89144468	0,00083385076731443405	0,3001862798676096	0,00116815825	0,28571133407090976	-0,010660274017159853	0,2885082367547913
1	1	0	0	0	0	2	7223,63	0,300000012	3,89972401	0,00083384337468114163	0,30018361851959213	0,00117063324	0,29655136637653126	-0,011064730197061034	0,2993482690604128
1	1	0	0	0	0	2	7353,63	0,300000012	3,8962903	0,00083384386254019213	0,30018379414885235	0,0011696032	0,30739131474347955	-0,011469183245097461	0,31018821742736109
1	1	0	0	0	0	2	7483,63	0,300000012	3,9005444	0,0008338409372882711	0,30018274105814816	0,00117087609	0,31823129045864154	-0,01187363731353251	0,32102819314252307
1	1	0	0	0	0	2	7613,63	0,300000012	3,90817523	0,00083385512014064525	0,30018784688506464	0,0011731867	0,32907124406655334	-0,012278090557116334	0,33186814675043488
1	1	0	0	0	0	2	7743,63	0,300000012	3,91426063	0,00083383712246186202	0,30018136772062419	0,00117498811	0,33991117892881606	-0,012682543101274782	0,3427080816126976
1	1	0	0	0	0	2	7873,63	0,300000012	3,91681695	0,00083383614684641357	0,30018101649905856	0,00117575412	0,3507509739080921	-0,013086990426210926	0,35354787659197363
1	1	0	0	0	0	2	8003,63	0,300000012	3,91675973	0,00083384069497883315	0,30018265382674944	0,00117574329	0,36159081775401075	-0,013491439574427208	0,36438772043789229
1	1	0	0	0	0	2	8133,63	0,300000012	3,92473388	0,00083383487161166131	0,30018055741454214	0,00117812876	0,37243073279412954	-0,013895891378994816	0,37522763547801107
1	1	0	0	0	0	2	8263,63	0,300000012	3,92944598	0,00083383195207019648	0,30017950637960205	0,00117953913	0,38327055826183693	-0,014300339841495325	0,38606746094571846
1	1	0	0	0	0	2	8393,63	0,300000012	3,93799233	0,00083383831704490714	0,3001817977705257	0,00118211366	0,39411037109128346	-0,014704787832445331	0,39690727377516499
1	1	0	0	0	0	2	8523,63	0,300000012	3,94342947	0,0008338339326861833	0,30018021940136595	0,00118373951	0,40495023843782182	-0,015109237857501331	0,40774714112170342
1	1	0	0	0	0	2	8653,63	0,300000012	3,93722939	0,00083383783383501914	0,30018162381496384	0,00118188397	0,41579015674458317	-0,015513689783951763	0,4185870594284647
1	1	0	0	0	0	2	8783,63	0,300000012	3,94321942	0,00083384482293162074	0,30018413988977094	0,0011836919	0,42663005535856755	-0,015918140975638218	0,42942695804244915
1	1	0	0	0	0	2	8913,63	0,300000012	3,95600104	0,00083384409631623155	0,30018387830822771	0,00118752779	0,43746997961922515	-0,016322593124236525	0,44026688230310669
1	1	0	0	0	0	2	9043,63	0,300000012	3,98129702	0,00083383861869076877	0,30018190636303718	0,00119511329	0,44830992842292147	-0,016727046188568608	0,45110683110680307
1	1	0	0	0	0	2	9173,63	0,300000012	3,9814117	0,0008338458541813824	0,30018451113968966	0,00119515811	0,45914989787908269	-0,017131500023471923	0,46194680056296422
1	1	0	0	0	0	2	9303,63	0,300000012	4,00258732	0,00083383819902274342	0,30018175528254618	0,00120150368	0,46998987527590022	-0,017535954154651805	0,47278677795978182
1	1	0	0	0	0	2	9433,63	0,300000012	3,99715018	0,00083383086605038899	0,30017911541246669	0,00119986106	0,48082970710158547	-0,017940402854377014	0,48362660978546701
1	1	0	0	0	0	2	9563,63	0,300000012	4,00644064	0,00083384851247403354	0,30018546812505562	0,00120267528	0,49166966478310394	-0,018344856249952576	0,49446656746698547
1	1	0	0	0	0	2	9693,63	0,300000012	4,02780676	0,00083384007952610662	0,30018243226376518	0,00120907684	0,50250955536662579	-0,018749307142011674	0,50530645805050746
1	1	0	0	0	0	2	9823,63	0,300000012	4,0441556	0,0008338383357955351	0,30018180452075174	0,00121398189	0,51334940949238861	-0,019153756673782762	0,51614631217627027
1	1	0	0	0	0	2	9953,63	0,300000012	4,06256485	0,00083384477469159501	0,30018412252336141	0,00121951743	0,52418932879658067	-0,019558208637448678	0,52698623148046234
1	1	0	0	0	0	2	10083,63	0,300000012	4,07286644	0,00083383367979526515	0,30018012836063437	0,00122259359	0,53502932193781958	-0,01996266335607409	0,53782622462170125
1	1	0	0	0	0	2	10213,63	0,300000012	4,08412218	0,00083383538904454976	0,30018074369038419	0,00122597488	0,54586913411521107	-0,02036711132269504	0,54866603679909274
1	1	0	0	0	0	2	10343,63	0,300000012	4,08746052	0,0008338461089895831	0,30018460287064294	0,0012269927	0,55670905630820525	-0,020771563394146048	0,55950595899208691
1	1	0	0	0	0	2	10473,63	0,300000012	4,1007762	0,00083384192435608973	0,3001830964025671	0,00123098365	0,56754899019403616	-0,021176015901872518	0,57034589287791782
1	1	0	0	0	0	2	10603,63	0,300000012	4,11989117	0,00083385408994224333	0,30018747601363546	0,00123673968	0,57838894249899392	-0,021580469096841373	0,58118584518287565
1	1	0	0	0	0	2	10733,63	0,300000012	4,13948345	0,0008338433041125536	0,3001835931149001	0,00124260504	0,5892288855081056	-0,021984921944969712	0,5920257881919872
1	1	0	0	0	0	2	10863,63	0,300000012	4,1474576	0,00083382141763965286	0,30017571398456051	0,00124496606	0,60006867316655526	-0,022389368996755978	0,60286557585043686
1	1	0	0	0	0	2	10993,63	0,300000012	4,1576829	0,00083383278491761946	0,30017980620467802	0,00124805246	0,61090841853309722	-0,022793814470574307	0,61370532121697882
1	1	0	0	0	0	2	11123,63	0,300000012	4,18105221	0,00083382245411475507	0,30017608711560179	0,00125505193	0,62174816012832922	-0,023198259803679994	0,62454506281221094
1	1	0	0	0	0	2	11253,63	0,300000012	4,1958127	0,00083383443988859648	0,30018040199423693	0,00125950074	0,63258794273775885	-0,023602706667080534	0,63538484542164058
1	1	0	0	0	0	2	11285,35	0,300000012	4,19997168	0,00014367032441331282	0,30018176097069766	0,00126075489	0,63523308956091507	-0,023701400651490221	0,63802999224479667