File: Experimentelles/Rohdaten/Batteriemessungen/AlteZelle/Studenten_Batterietests/LiCoO2 vs Li 300µm GCPL/ZView-Export/LiCoO2 vs Li 300µm GCPL_02_GCPL_C04_loop2.txt
EC-Lab ASCII FILE
Nb header lines : 3
mode	ox/red	error	control changes	Ns changes	counter inc.	Ns	time/s	control/V/mA	Ewe/V	dq/mA.h	<I>/mA	P/W	(Q-Qo)/mA.h	x	Capacity/mA.h
1	0	0	1	1	0	1	24964,75	-0,300000012	4,18873549	0	0	0	0	0	0
1	0	0	1	0	0	1	25194,75	-0,300000012	4,10363293	-0,0008329067415081792	-0,29984643057324326	0,00123045966	-0,019152626343065114	0,00071461023983975206	0,019152626343065114
1	0	0	1	0	0	1	25424,75	-0,300000012	4,05945063	-0,00083290602902405786	-0,29984617407895648	0,00121721078	-0,038309520287300435	0,0014293797096170155	0,038309520287300435
1	0	0	1	0	0	1	25654,75	-0,300000012	4,02593231	-0,00083290056573351219	-0,29984420729433626	0,0012071525	-0,057466309677349498	0,002144145278337015	0,057466309677349498
1	0	0	1	0	0	1	25884,75	-0,300000012	3,99525666	-0,00083291903571784499	-0,29985085648877651	0,00119798118	-0,076623375989598003	0,0028589211793966016	0,076623375989598003
1	0	0	1	0	0	1	26114,75	-0,300000012	3,96671748	-0,00083291990407804646	-0,2998511690984528	0,00118942489	-0,095780478867648653	0,0035736984447754291	0,095780478867648653
1	0	0	1	0	0	1	26344,75	-0,300000012	3,94521785	-0,00083291079809268314	-0,29984789094368237	0,00118296524	-0,11493762864667205	0,0042884774600926093	0,11493762864667205
1	0	0	1	0	0	1	26574,75	-0,300000012	3,94359636	-0,00083289795558982426	-0,29984326764259718	0,00118246081	-0,13409435386641688	0,0050032406345322797	0,13409435386641688
1	0	0	1	0	0	1	26804,75	-0,300000012	3,94838452	-0,00083290432261592819	-0,29984555977202234	0,00118390552	-0,15325097486453126	0,0057179999203227917	0,15325097486453126
1	0	0	1	0	0	1	27034,75	-0,300000012	3,91606832	-0,00083292594931523008	-0,29985334538386528	0,00117424619	-0,17240792713408701	0,0064327715662961792	0,17240792713408701
1	0	0	1	0	0	1	27264,75	-0,300000012	3,89040971	-0,00083290225960645414	-0,29984481708860275	0,00116651924	-0,19156485100863734	0,007147542152813737	0,19156485100863734
1	0	0	1	0	0	1	27494,75	-0,300000012	3,87657905	-0,00083291243246859981	-0,29984847931901946	0,00116238638	-0,21072186641866986	0,0078623161546432051	0,21072186641866986
1	0	0	1	0	0	1	27724,75	-0,300000012	3,85933328	-0,0008329095689853033	-0,29984744846502029	0,00115721126	-0,22987882410056419	0,0085770880025582246	0,22987882410056419
1	0	0	1	0	0	1	27954,75	-0,300000012	3,84649467	-0,00083291684331330982	-0,29985006722313434	0,00115337165	-0,24903567938080285	0,0092918560297297869	0,24903567938080285
1	0	0	1	0	0	1	28184,75	-0,300000012	3,83434248	-0,00083291551129023245	-0,29984958769482061	0,00114972598	-0,26819262829485229	0,010006627550504725	0,26819262829485229
1	0	0	1	0	0	1	28414,75	-0,300000012	3,82808542	-0,00083291473351253402	-0,29984930769484589	0,00114784879	-0,28734958634485664	0,010721399412154419	0,28734958634485664
1	0	0	1	0	0	1	28644,75	-0,300000012	3,81822252	-0,00083291312743723392	-0,29984872950773075	0,00114488916	-0,3065066886552441	0,011436176656352971	0,3065066886552441
1	0	0	1	0	0	1	28874,75	-0,300000012	3,81505585	-0,00083291520486937626	-0,2998494773833111	0,00114394247	-0,3256637437025344	0,012150952137101819	0,3256637437025344
1	0	0	1	0	0	1	29104,75	-0,300000012	3,8261013	-0,0008329176325433783	-0,29985035134596243	0,00114725786	-0,34482073667221126	0,012865725301651448	0,34482073667221126
1	0	0	1	0	0	1	29334,75	-0,300000012	3,82386923	-0,00083292026437984576	-0,29985129880710214	0,0011465922	-0,3639777876383847	0,013580500630128341	0,3639777876383847
1	0	0	1	0	0	1	29564,75	-0,300000012	3,81423545	-0,0008329087438152896	-0,29984715140381171	0,00114368764	-0,38313477169298496	0,014295273462044475	0,38313477169298496
1	0	0	1	0	0	1	29794,75	-0,300000012	3,8207407	-0,00083292052067816243	-0,29985139107449734	0,00114565436	-0,40229176166691597	0,0150100465148188	0,40229176166691597
1	0	0	1	0	0	1	30024,75	-0,300000012	3,81721139	-0,00083291342450181658	-0,29984883645098182	0,00114458636	-0,42144874689194458	0,015724819390405187	0,42144874689194458
1	0	0	1	0	0	1	30254,75	-0,300000012	3,81230879	-0,00083291901802851085	-0,29985085012061619	0,00114312407	-0,44060572067946426	0,016439591839242742	0,44060572067946426
1	0	0	1	0	0	1	30484,75	-0,300000012	3,77350616	-0,00083289510906736064	-0,29984224289449786	0,00113145658	-0,45976265280641357	0,017154362733668403	0,45976265280641357
1	0	0	1	0	0	1	30714,75	-0,300000012	3,75074744	-0,00083291584091385203	-0,29984970635932512	0,00112466048	-0,47891962195364051	0,017869135009370394	0,47891962195364051
1	0	0	1	0	0	1	30944,75	-0,300000012	3,70189118	-0,0008329193534023232	-0,29985097085519008	0,00111001567	-0,49807668420192026	0,01858391075879784	0,49807668420192026
1	0	0	1	0	0	1	31174,75	-0,300000012	3,5911305	-0,00083291276710232102	-0,29984859978716058	0,00107679539	-0,51723373824487386	0,019298686202073536	0,51723373824487386
1	0	0	1	0	0	1	31404,75	-0,300000012	3,21188068	-0,00083291583390368358	-0,29984970383566445	0,000963081489	-0,53639082295944717	0,020013462789748605	0,53639082295944717
1	0	0	1	0	0	1	31634,73	-0,300000012	2,00013161	-0,00083076546198295219	-0,29984918082208122	0,000599737803	-0,5555455835096761	0,020728152659727114	0,5555455835096761
1	1	0	0	0	0	2	31854,73	0,300000012	3,86889577	0,00083382477133307187	0,30017692131420595	0,0011613532	-0,53720135007097722	0,020043704646045085	0,018344233438698781
1	1	0	0	0	0	2	32084,73	0,300000012	3,87669826	0,00083381409196721178	0,30017307674244979	0,00116368046	-0,5180234219178167	0,019328150361652026	0,037522161591859328
1	1	0	0	0	0	2	32314,73	0,300000012	3,88497758	0,00083382325295607245	0,30017637469847955	0,0011661785	-0,49884527685153574	0,018612587983938803	0,056700306658140493
1	1	0	0	0	0	2	32544,73	0,300000012	3,89148283	0,00083382747373150464	0,3001778941776535	0,00116813707	-0,47966717508470771	0,017897027221786384	0,075878408424968538
1	1	0	0	0	0	2	32774,73	0,300000012	3,90794635	0,00083382164693044288	0,30017579370568486	0,00117307086	-0,46048906014382432	0,01718146596809225	0,095056523365851917
1	1	0	0	0	0	2	33004,73	0,300000012	3,9125247	0,00083383140732016832	0,30017930607613299	0,001174459	-0,44131099979430362	0,016465906751275251	0,11423458371537264
1	1	0	0	0	0	2	33234,73	0,300000012	3,91687417	0,00083383175524406963	0,30017943132873728	0,00117576506	-0,42213296154288717	0,015750348358968237	0,13341262196678918
1	1	0	0	0	0	2	33464,73	0,300000012	3,91845775	0,00083383560409645248	0,30018081691559251	0,00117624586	-0,40295494710407437	0,015034790855141482	0,15259063640560214
1	1	0	0	0	0	2	33694,73	0,300000012	3,91208601	0,00083383675730062848	0,30018123206909517	0,00117433479	-0,38377662782518682	0,014319221977321674	0,1717689556844897
1	1	0	0	0	0	2	33924,73	0,300000012	3,92068958	0,00083383362378842304	0,3001801040047033	0,00117691304	-0,36459851903015814	0,013603660952937642	0,19094706447951827
1	1	0	0	0	0	2	34154,73	0,300000012	3,93089581	0,00083383625244597606	0,30018105032142054	0,00117998046	-0,34542039793909677	0,012888099469772096	0,21012518557057942
1	1	0	0	0	0	2	34384,73	0,300000012	3,94461203	0,00083381718759569843	0,3001741869753335	0,00118407072	-0,32624239151110682	0,012172542264839914	0,2293031919985695
1	1	0	0	0	0	2	34614,73	0,300000012	3,95184231	0,00083382248705128832	0,30017609477934227	0,00118624861	-0,30706457706508474	0,011456992223013069	0,24848100644459155
1	1	0	0	0	0	2	34844,73	0,300000012	3,96151423	0,00083382237279249562	0,30017605364617696	0,00118915166	-0,28788651930648019	0,010741433102866638	0,26765906420319613
1	1	0	0	0	0	2	35074,73	0,300000012	3,97009897	0,0008338266423493623	0,30017759068664614	0,0011917348	-0,26870842538007533	0,010025872633250952	0,28683715812960099
1	1	0	0	0	0	2	35304,73	0,300000012	3,9828043	0,00083383205377889997	0,30017953880127603	0,00119555637	-0,24953029963072899	0,0093103109762785306	0,30601528387894733
1	1	0	0	0	0	2	35534,73	0,300000012	3,98961473	0,00083382794495092506	0,30017805962320781	0,0011975948	-0,23035218691407738	0,0085947498055734733	0,32519339659559885
1	1	0	0	0	0	2	35764,73	0,300000012	3,99886703	0,00083381730240914547	0,30017422830817434	0,00120035687	-0,21117411200025283	0,0078791900453427187	0,34437147150942355
1	1	0	0	0	0	2	35994,73	0,300000012	4,00937843	0,00083382249173356429	0,3001760964649616	0,00120351953	-0,19199617106790282	0,007163635284140919	0,36354941244177357
1	1	0	0	0	0	2	36224,73	0,300000012	4,02076769	0,00083382732544839386	0,30017783660229702	0,0012069454	-0,17281815199841325	0,0064480776075373862	0,38272743151126298
1	1	0	0	0	0	2	36454,73	0,300000012	4,03021049	0,00083382919645971725	0,30017851016637216	0,00120978255	-0,15364020893991091	0,0057325227670059866	0,40190537456976525
1	1	0	0	0	0	2	36684,73	0,300000012	4,04942083	0,00083381498055160038	0,30017339243945965	0,00121552835	-0,13446231883216339	0,005016969902138441	0,42108326467751277
1	1	0	0	0	0	2	36914,73	0,300000012	4,05964613	0,00083383465566072205	0,30018047547873024	0,00121862651	-0,11528429747025272	0,0043014121400015949	0,44026128603942342
1	1	0	0	0	0	2	37144,73	0,300000012	4,07097816	0,00083382807597186829	0,30017810679074733	0,0012220185	-0,096105975224962854	0,0035858431515013286	0,45943960828471334
1	1	0	0	0	0	2	37374,73	0,300000012	4,09154272	0,00083382152646614438	0,30017574896869107	0,00122818188	-0,076927909140652454	0,0028702837207116192	0,47861767436902374
1	1	0	0	0	0	2	37604,73	0,300000012	4,1143589	0,00083383166825936896	0,30017940001424512	0,00123504584	-0,057749910812678618	0,0021547268180019261	0,49779567269699744
1	1	0	0	0	0	2	37834,73	0,300000012	4,14301252	0,00083383640437324838	0,30018110501523853	0,00124365406	-0,038571649136257856	0,0014391600894076027	0,5169739343734183
1	1	0	0	0	0	2	38064,73	0,300000012	4,17296362	0,00083381715766754406	0,30017417620119789	0,00125261594	-0,01939364115488465	0,00072360282651659994	0,53615194235479136
1	1	0	0	0	0	2	38272,17	0,300000012	4,20014334	0,00062075803424583539	0,30018119430008256	0,00126080401	-0,0020962774395042208	7,8214929742895782E-005	0,55344930607017184