File: Experimentelles/Rohdaten/Batteriemessungen/AlteZelle/Studenten_Batterietests/LiCoO2 vs Li 300µm GCPL/ZView-Export/LiCoO2 vs Li 300µm GCPL_02_GCPL_C04_loop8.txt
EC-Lab ASCII FILE
Nb header lines : 3
mode	ox/red	error	control changes	Ns changes	counter inc.	Ns	time/s	control/V/mA	Ewe/V	dq/mA.h	<I>/mA	P/W	(Q-Qo)/mA.h	x	Capacity/mA.h
1	0	0	1	1	0	1	92115,51	-0,300000012	4,17789936	0	0	0	0	0	0
1	0	0	1	0	0	1	92235,51	-0,300000012	4,0041275	-0,00083289223102397389	-0,2998352777710736	0,00120057864	-0,0099906442880732288	0,00037276437095211949	0,0099906442880732288
1	0	0	1	0	0	1	92355,51	-0,300000012	3,9644475	-0,00083290287298129664	-0,29983910897801677	0,00118869636	-0,019985532661163392	0,00074568709442245376	0,019985532661163392
1	0	0	1	0	0	1	92475,52	-0,300000012	3,9376061	-0,00083290165220366592	-0,29983866838979027	0,00118064659	-0,029980379441014848	0,0011186082659931291	0,029980379441014848
1	0	0	1	0	0	1	92595,52	-0,300000012	3,91269159	-0,00083292159958680474	-0,29984584930927782	0,00117320428	-0,03997528550566592	0,0014915316495593875	0,03997528550566592
1	0	0	1	0	0	1	92715,52	-0,300000012	3,88604116	-0,0008329119491693047	-0,29984237634462189	0,00116519979	-0,049970283568753389	0,001864458465711001	0,049970283568753389
1	0	0	1	0	0	1	92835,52	-0,300000012	3,86164165	-0,00083290928808848064	-0,29984141827366675	0,00115788006	-0,059965262596786278	0,0022373845716391357	0,059965262596786278
1	0	0	1	0	0	1	92955,53	-0,300000012	3,84109592	-0,00083292006394598221	-0,29984529648950835	0,0011517345	-0,069960203317241805	0,0026103092482600531	0,069960203317241805
1	0	0	1	0	0	1	93075,53	-0,300000012	3,81719232	-0,00083290706656045376	-0,29984061784432858	0,00114454934	-0,079955133506020173	0,002983233531929936	0,079955133506020173
1	0	0	1	0	0	1	93195,53	-0,300000012	3,79525399	-0,00083290798374348211	-0,29984094881604538	0,00113797258	-0,089950099691363085	0,0033561591586800403	0,089950099691363085
1	0	0	1	0	0	1	93315,53	-0,300000012	3,77674937	-0,00083291396558781466	-0,29984310165103533	0,00113243225	-0,099945014645765453	0,0037290828739348717	0,099945014645765453
1	0	0	1	0	0	1	93435,54	-0,300000012	3,7532084	-0,00083291173852317862	-0,29984229939653754	0,00112537062	-0,10993992043205622	0,0041020062471151328	0,10993992043205622
1	0	0	1	0	0	1	93555,54	-0,300000012	3,73325372	-0,00083290926272670426	-0,29984140893373875	0,00111938408	-0,1199348497071153	0,0044749304966929197	0,1199348497071153
1	0	0	1	0	0	1	93675,54	-0,300000012	3,71226907	-0,00083291510875191949	-0,29984351377712179	0,00111309974	-0,12992983416295411	0,004847856805139792	0,12992983416295411
1	0	0	1	0	0	1	93795,54	-0,300000012	3,68977737	-0,00083291563443839552	-0,29984370192621933	0,0011063565	-0,13992474107464181	0,0052207802203101254	0,13992474107464181
1	0	0	1	0	0	1	93915,54	-0,300000012	3,66539717	-0,00083290915636056	-0,29984136983636781	0,0010990377	-0,14991969971405162	0,0055937055655113203	0,14991969971405162
1	0	0	1	0	0	1	94035,55	-0,300000012	3,63844132	-0,00083291313877039488	-0,29984280458949728	0,00109096046	-0,15991465856928982	0,0059666309187653619	0,15991465856928982
1	0	0	1	0	0	1	94155,55	-0,300000012	3,61110401	-0,00083292011073562842	-0,29984531445043686	0,00108277262	-0,16990960696634179	0,0063395558818104154	0,16990960696634179
1	0	0	1	0	0	1	94275,55	-0,300000012	3,58058095	-0,00083293314409918259	-0,29985000525159046	0,00107363716	-0,17990465190667104	0,0067124844470149453	0,17990465190667104
1	0	0	1	0	0	1	94395,55	-0,300000012	3,54460192	-0,00083291636287503782	-0,29984396432228442	0,00106282753	-0,18989973021763418	0,0070854142573226957	0,18989973021763418
1	0	0	1	0	0	1	94515,56	-0,300000012	3,50116348	-0,00083291645360986394	-0,29984399790768794	0,00104980287	-0,1998948197202552	0,0074583444852062464	0,1998948197202552
1	0	0	1	0	0	1	94635,56	-0,300000012	3,45486379	-0,00083293014282319283	-0,29984892545586554	0,00103593722	-0,20988984264675133	0,0078312722290450662	0,20988984264675133
1	0	0	1	0	0	1	94755,56	-0,300000012	3,39141393	-0,00083290726693140122	-0,29984068965182419	0,00101688388	-0,21988477980301466	0,0082041967726811814	0,21988477980301466
1	0	0	1	0	0	1	94875,56	-0,300000012	3,32794476	-0,00083291771839227942	-0,29984445280149024	0,000997865805	-0,22987981047416413	0,0085771248054834304	0,22987981047416413
1	0	0	1	0	0	1	94995,57	-0,300000012	3,25529981	-0,00083291886189579968	-0,29984486487698278	0,000976084906	-0,23987487943201443	0,0089500542668139635	0,23987487943201443
1	0	0	1	0	0	1	95115,57	-0,300000012	3,1799078	-0,00083290875746309747	-0,29984122638621299	0,000953467446	-0,24986978946475693	0,009322977798435049	0,24986978946475693
1	0	0	1	0	0	1	95235,57	-0,300000012	3,09451914	-0,00083290935809082458	-0,29984144245520986	0,000927865098	-0,2598646801050969	0,0096959006064995213	0,2598646801050969
1	0	0	1	0	0	1	95355,57	-0,300000012	2,99655914	-0,00083290724579658778	-0,29984068316390374	0,000898490369	-0,26985955775682813	0,010068822929941539	0,26985955775682813
1	0	0	1	0	0	1	95475,58	-0,300000012	2,85685849	-0,00083292281017700826	-0,29984628623012979	0,000856618397	-0,27985452569275277	0,010441748622008202	0,27985452569275277
1	0	0	1	0	0	1	95595,58	-0,300000012	2,663342	-0,00083292047192818586	-0,29984544335714451	0,000798590947	-0,2898495656174688	0,010814677000073459	0,2898495656174688
1	0	0	1	0	0	1	95715,58	-0,300000012	2,42217112	-0,00083292669592466624	-0,29984768403842048	0,000726282422	-0,29984462613687936	0,011187606146554461	0,29984462613687936
1	0	0	1	0	0	1	95835,58	-0,300000012	2,14070964	-0,00083292215577264627	-0,29984605064921485	0,000641883351	-0,30983972232903565	0,011560536624033566	0,30983972232903565
1	1	0	0	0	0	2	95941,96	0,300000012	3,73776078	0,00083386227171619738	0,30018448570787411	0,00112201774	-0,31036570001616429	0,011580161558724859	0,0041692976874245536
1	1	0	0	0	0	2	96061,96	0,300000012	3,95466566	0,00083386656528711322	0,30018603093302886	0,00118713535	-0,30035943846894483	0,011206814486836365	0,014175559234643976
1	1	0	0	0	0	2	96181,96	0,300000012	3,97303677	0,00083387066830032397	0,30018750728967904	0,001192656	-0,29035308817450221	0,010833464103669654	0,024181909529086621
1	1	0	0	0	0	2	96301,96	0,300000012	3,98721099	0,00083386689840588301	0,30018615080099763	0,0011969055	-0,28034671641677811	0,010460112919679054	0,034188281286810835
1	1	0	0	0	0	2	96421,97	0,300000012	3,99825644	0,00083387428521944422	0,3001888104765895	0,00120023184	-0,27034030045455549	0,010086760086359178	0,044194697249033382
1	1	0	0	0	0	2	96541,97	0,300000012	4,01044703	0,00083386880663037299	0,30018683729787558	0,00120388344	-0,26033380904935328	0,0097134044381603021	0,054201188654235667
1	1	0	0	0	0	2	96661,97	0,300000012	4,02494526	0,0008338489454239607	0,30017968721224902	0,00120820676	-0,25032761649658141	0,0093400599405474125	0,064207381207007501
1	1	0	0	0	0	2	96781,97	0,300000012	4,03570461	0,0008338717996395296	0,30018791568550272	0,00121146976	-0,24032128386408614	0,0089667102163717005	0,074213713839502797
1	1	0	0	0	0	2	96901,98	0,300000012	4,04863882	0,00083384126217994432	0,30017692241380186	0,00121530797	-0,23031494087546922	0,0085933601057951706	0,08422005682811968
1	1	0	0	0	0	2	97021,98	0,300000012	4,05518246	0,00083387092819313216	0,3001876008492407	0,00121731544	-0,22030854169343107	0,0082200078985665382	0,094226456010157875
1	1	0	0	0	0	2	97141,98	0,300000012	4,06103897	0,00083384938469529152	0,3001798453747584	0,00121904199	-0,21030232684467427	0,0078466625690604736	0,10423267085891469
1	1	0	0	0	0	2	97261,98	0,300000012	4,06515932	0,00083385171926518285	0,30018068689009568	0,00122028228	-0,20029604498377306	0,0074733147392412019	0,11423895271981595
1	1	0	0	0	0	2	97381,99	0,300000012	4,07387781	0,00083385655468867878	0,3001824273023849	0,00122290652	-0,19028979602046838	0,0070999681368754893	0,12424520168312064
1	1	0	0	0	0	2	97501,99	0,300000012	4,08362579	0,00083385378947688461	0,3001814310368345	0,00122582866	-0,18028356623124445	0,0067266222499205069	0,13425143147234459
1	1	0	0	0	0	2	97621,99	0,300000012	4,09129477	0,00083384754799140826	0,30017918467763386	0,00122812157	-0,17027736179485123	0,0063532773089137267	0,14425763590873779
1	1	0	0	0	0	2	97741,99	0,300000012	4,10008955	0,00083385897099475072	0,30018329746158797	0,00123077841	-0,1602711364241312	0,0059799315868190669	0,15426386127945782
1	1	0	0	0	0	2	97861,99	0,300000012	4,11100149	0,00083385879549218547	0,30018323350219738	0,00123405375	-0,15026482500431309	0,005606582654116864	0,16427017269927594
1	1	0	0	0	0	2	97982,00	0,300000012	4,12240934	0,00083385569094452595	0,30018211555165562	0,00123747357	-0,14025846547814579	0,0052332319265020915	0,17427653222544323
1	1	0	0	0	0	2	98102,00	0,300000012	4,1312995	0,00083384805107778982	0,30017936627088435	0,00124013086	-0,13025227545484442	0,0048598875232671469	0,18428272224874461
1	1	0	0	0	0	2	98222,00	0,300000012	4,14066601	0,0008338549486994743	0,30018184946346637	0,00124295277	-0,12024598756181571	0,004486539468381088	0,19428901014177331
1	1	0	0	0	0	2	98342,00	0,300000012	4,15070057	0,0008338390470163689	0,30017612385594682	0,00124594115	-0,11023975161439882	0,0041131933516556474	0,20429524608919021
1	1	0	0	0	0	2	98462,01	0,300000012	4,16029644	0,0008338565247290665	0,3001824157046631	0,00124884781	-0,10023355695489917	0,003739848775437911	0,21430144074868989
1	1	0	0	0	0	2	98582,01	0,300000012	4,16973925	0,00083383906977540915	0,30017613316376602	0,00125165621	-0,090227374368805414	0,0033665046496951821	0,22430762333478362
1	1	0	0	0	0	2	98702,01	0,300000012	4,17555809	0,00083383681432240538	0,30017532104550285	0,00125339953	-0,080221217056079424	0,002993161466935785	0,23431378064750963
1	1	0	0	0	0	2	98822,01	0,300000012	4,18429518	0,0008338491548912393	0,30017976261548442	0,00125604076	-0,070215128709117965	0,0026198208573817872	0,24431986899447107
1	1	0	0	0	0	2	98942,02	0,300000012	4,19249821	0,00083387555577688755	0,30018926713873382	0,00125854299	-0,060208883253336346	0,0022464743858864749	0,2543261144502527
1	1	0	0	0	0	2	99062,02	0,300000012	4,19949484	0,00083386136560804314	0,30018415950839558	0,00126062182	-0,05020261944456935	0,0018731272296166022	0,26433237825901974
1	1	0	0	0	0	2	99064,96	0,300000012	4,19991446	0,00024504747873544694	0,30018073170799744	0,00126073335	-0,049957571965833907	0,0018639841787151434	0,26457742573775517