File: Experimentelles/Rohdaten/Batteriemessungen/AlteZelle/Studenten_Batterietests/LiCoO2 vs Li 300µm GCPL/ZView-Export/LiCoO2 vs Li 300µm GCPL_02_GCPL_C04_loop4.txt
EC-Lab ASCII FILE
Nb header lines : 3
mode	ox/red	error	control changes	Ns changes	counter inc.	Ns	time/s	control/V/mA	Ewe/V	dq/mA.h	<I>/mA	P/W	(Q-Qo)/mA.h	x	Capacity/mA.h
1	0	0	1	1	0	1	51118,48	-0,300000012	4,18646526	0	0	0	0	0	0
1	0	0	1	0	0	1	51328,48	-0,300000012	4,10783005	-0,00083289433196518157	-0,29984195894896621	0,00123169983	-0,017486733390398598	0,0006524535339588681	0,017486733390398598
1	0	0	1	0	0	1	51538,48	-0,300000012	4,07642937	-0,00083292275316847693	-0,29985219058213344	0,0012223263	-0,034977649185310906	0,0013050631190534451	0,034977649185310906
1	0	0	1	0	0	1	51748,48	-0,300000012	4,05187702	-0,0008329169652776585	-0,29985010694144269	0,0012149557	-0,052468679927365082	0,0019576769929804339	0,052468679927365082
1	0	0	1	0	0	1	51958,48	-0,300000012	4,04067898	-0,00083292089292572595	-0,29985152089474438	0,00121160375	-0,069959869448916224	0,0026102967911839347	0,069959869448916224
1	0	0	1	0	0	1	52168,48	-0,300000012	4,01385689	-0,0008329052144421472	-0,29984587664066656	0,00120353838	-0,0874511452967072	0,003262919810335511	0,0874511452967072
1	0	0	1	0	0	1	52378,48	-0,300000012	3,99353981	-0,00083290034869147661	-0,29984412497042842	0,0011974395	-0,10494213317141541	0,0039155320848241862	0,10494213317141541
1	0	0	1	0	0	1	52588,48	-0,300000012	3,97562647	-0,00083289264388879142	-0,29984135124146688	0,00119205716	-0,12243299371077064	0,0045681396082596371	0,12243299371077064
1	0	0	1	0	0	1	52798,48	-0,300000012	3,96038389	-0,00083290450719164467	-0,29984562203048608	0,0011875038	-0,13992388406711931	0,0052207482442072019	0,13992388406711931
1	0	0	1	0	0	1	53008,48	-0,300000012	3,94397783	-0,00083290410039987827	-0,29984547558545043	0,00118258386	-0,15741495055428422	0,0058733634518323328	0,15741495055428422
1	0	0	1	0	0	1	53218,48	-0,300000012	3,92843008	-0,00083291255149576397	-0,29984851797996365	0,00117793388	-0,17490603827979613	0,0065259794518887424	0,17490603827979613
1	0	0	1	0	0	1	53428,48	-0,300000012	3,91528606	-0,00083291604561441472	-0,29984977586267558	0,00117399765	-0,1923970985204423	0,0071785944264478592	0,1923970985204423
1	0	0	1	0	0	1	53638,48	-0,300000012	3,90103555	-0,00083291210109161011	-0,29984835583446854	0,00116971915	-0,20988823030337306	0,0078312120703458048	0,20988823030337306
1	0	0	1	0	0	1	53848,48	-0,300000012	3,88915062	-0,00083290867927173773	-0,2998471239793168	0,00116615067	-0,22737937732404912	0,0084838302827845146	0,22737937732404912
1	0	0	1	0	0	1	54058,48	-0,300000012	3,87862015	-0,00083290446498327782	-0,29984560683547405	0,0011629872	-0,24487051391867248	0,0091364481062131789	0,24487051391867248
1	0	0	1	0	0	1	54268,48	-0,300000012	3,86902452	-0,00083290550091697114	-0,29984597977160294	0,00116011139	-0,26236155429641517	0,0097890623396606618	0,26236155429641517
1	0	0	1	0	0	1	54478,48	-0,300000012	3,86097407	-0,00083290484915839296	-0,29984574513851526	0,00115769659	-0,27985255895560102	0,010441675240400763	0,27985255895560102
1	0	0	1	0	0	1	54688,48	-0,300000012	3,85282826	-0,0008328965112037129	-0,29984274347483603	0,00115524256	-0,2973435610858793	0,011094288046783923	0,2973435610858793
1	0	0	1	0	0	1	54898,48	-0,300000012	3,84311795	-0,00083291459300286246	-0,2998492529225177	0,00115235604	-0,31483457237210656	0,01174690119478785	0,31483457237210656
1	0	0	1	0	0	1	55108,48	-0,300000012	3,83201528	-0,00083291036998728909	-0,29984773263691418	0,00114902109	-0,33232558558787014	0,012399514414785373	0,33232558558787014
1	0	0	1	0	0	1	55318,48	-0,300000012	3,81860399	-0,00083290052865280038	-0,29984418975650483	0,00114498625	-0,34981654381631923	0,013052125583132259	0,34981654381631923
1	0	0	1	0	0	1	55528,48	-0,300000012	3,80301833	-0,00083291187529100314	-0,29984827454625018	0,00114032847	-0,36730757955126899	0,013704739643350896	0,36730757955126899
1	0	0	1	0	0	1	55738,48	-0,300000012	3,78235793	-0,00083290473406016832	-0,29984570370315443	0,00113412377	-0,38479867418463789	0,014357355901148739	0,38479867418463789
1	0	0	1	0	0	1	55948,48	-0,300000012	3,75418115	-0,00083292633669906202	-0,29985348065314163	0,00112570426	-0,40228977484552979	0,015009972383841571	0,40228977484552979
1	0	0	1	0	0	1	56158,48	-0,300000012	3,71726727	-0,00083290346993009254	-0,299845248616328	0,00111460488	-0,41978091234133069	0,015662590240894381	0,41978091234133069
1	0	0	1	0	0	1	56368,48	-0,300000012	3,66665626	-0,00083290282642179059	-0,29984501695333978	0,00109942863	-0,4372719542900464	0,016315204532956976	0,4372719542900464
1	0	0	1	0	0	1	56578,48	-0,300000012	3,5902338	-0,00083290770493116646	-0,29984677321671174	0,00107652007	-0,45476300456375789	0,016967819135636362	0,45476300456375789
1	0	0	1	0	0	1	56788,48	-0,300000012	3,4569242	-0,00083290021309422131	-0,29984407615541651	0,00103653828	-0,4722540722914992	0,017620434389549062	0,4722540722914992
1	0	0	1	0	0	1	56998,48	-0,300000012	3,12139869	-0,00083291569615072678	-0,2998496500557481	0,000935950316	-0,48974510345255584	0,0182730482791096	0,48974510345255584
1	0	0	1	0	0	1	57208,48	-0,300000012	2,34544349	-0,00083292562070488922	-0,29985322289524	0,000703288766	-0,50723618173791718	0,018925663926941299	0,50723618173791718
1	1	0	0	0	0	2	57408,32	0,300000012	3,9077363	0,00083383338827722611	0,30018001922067251	0,00117302442	-0,50387970482827482	0,018800429260611341	0,010005970963330733
1	1	0	0	0	0	2	57618,32	0,300000012	3,92994189	0,00083382992319265997	0,30017877179023104	0,00117968512	-0,48636922879705088	0,018147089856800963	0,027516446994554669
1	1	0	0	0	0	2	57828,32	0,300000012	3,94075871	0,00083383368674251763	0,30018012666817728	0,00118293741	-0,46885888836415526	0,017493755512346522	0,045026787427450208
1	1	0	0	0	0	2	58038,32	0,300000012	3,94884729	0,00083384867094126016	0,3001855209797145	0,00118538679	-0,4513482723272832	0,016840410884737168	0,062537403464322266
1	1	0	0	0	0	2	58248,32	0,300000012	3,95476103	0,00083382293531960922	0,30017625615593747	0,00118712534	-0,43383775472134925	0,016187069929718461	0,080047921070256128
1	1	0	0	0	0	2	58458,32	0,300000012	3,96294498	0,00083383592619333005	0,30018093287046829	0,00118960056	-0,41632716978660627	0,01553372646257136	0,097558506004999078
1	1	0	0	0	0	2	58668,32	0,300000012	3,96641707	0,00083384350345863232	0,30018366068597203	0,00119065365	-0,39881650333760256	0,014880379954017597	0,11506917245400285
1	1	0	0	0	0	2	58878,32	0,300000012	3,97233105	0,0008338402664744192	0,30018249537165741	0,00119242421	-0,3813058429527488	0,014227033671725422	0,13257983283885653
1	1	0	0	0	0	2	59088,32	0,300000012	3,97807312	0,00083384501979417267	0,3001842065667655	0,00119415473	-0,36379510504315379	0,013573684496880914	0,15009057074845168
1	1	0	0	0	0	2	59298,32	0,300000012	3,98619986	0,00083385303567846618	0,30018709228510579	0,00119660574	-0,34628434955822995	0,012920334666277261	0,16760132623337536
1	1	0	0	0	0	2	59508,32	0,300000012	3,99207568	0,00083384627140396173	0,3001846571462887	0,00119835988	-0,32877368487555187	0,012266988223627482	0,18511199091605338
1	1	0	0	0	0	2	59718,32	0,300000012	3,99949646	0,00083384099800388019	0,30018275872226291	0,00120057992	-0,31126300467220678	0,011613641201880747	0,20262267111939846
1	1	0	0	0	0	2	59928,32	0,300000012	4,00577307	0,00083384461883703859	0,3001840622221975	0,00120246923	-0,29375234598957562	0,010960294983100784	0,22013332980202963
1	1	0	0	0	0	2	60138,32	0,300000012	4,01298428	0,00083383653186592781	0,30018115091260307	0,00120462221	-0,27624162878608438	0,01030694658082885	0,23764404700552086
1	1	0	0	0	0	2	60348,32	0,300000012	4,02109194	0,00083383653874529728	0,30018115338917606	0,00120705599	-0,25873111330644848	0,0096536057051451789	0,25515456248515674
1	1	0	0	0	0	2	60558,32	0,300000012	4,03110695	0,00083382844324575526	0,30017823900934637	0,00121005054	-0,24122052241370813	0,0090002620156971891	0,27266515337789715
1	1	0	0	0	0	2	60768,32	0,300000012	4,04140854	0,00083384302972588275	0,30018349014218246	0,00121316407	-0,22370973088599482	0,0083469108402885978	0,29017594490561056
1	1	0	0	0	0	2	60978,32	0,300000012	4,04970741	0,00083384828822811443	0,3001853832029824	0,00121566292	-0,20619880689025994	0,0076935547223200179	0,30768686890134554
1	1	0	0	0	0	2	61188,32	0,300000012	4,0600276	0,00083385904852052518	0,30018925690824307	0,00121877668	-0,18868782831473722	0,0070401965679061709	0,32519784747686829
1	1	0	0	0	0	2	61398,32	0,300000012	4,07147408	0,00083385200845201805	0,30018672248358522	0,00122220244	-0,17117691123642928	0,0063868407080360909	0,34270876455517632
1	1	0	0	0	0	2	61608,32	0,300000012	4,07994413	0,00083384354339374438	0,30018367506261229	0,00122473261	-0,15366606906080986	0,0057334876428860269	0,36021960673079565
1	1	0	0	0	0	2	61818,32	0,300000012	4,09144735	0,00083384647078977677	0,30018472892518208	0,00122819003	-0,13615547660032989	0,0050801438949435635	0,37773019919127584
1	1	0	0	0	0	2	62028,32	0,300000012	4,10529757	0,00083383299735850765	0,30017987848993408	0,00123232778	-0,11864485654201354	0,0044267991172887174	0,39524081924959219
1	1	0	0	0	0	2	62238,32	0,300000012	4,11756372	0,0008338513480391767	0,30018648473496275	0,001236037	-0,10113399610492498	0,0037734453707786874	0,41275167968668064
1	1	0	0	0	0	2	62448,32	0,300000012	4,13337851	0,00083382145940760768	0,30017572482761792	0,00124073983	-0,083623371510920346	0,0031201004238912134	0,43026230428068538
1	1	0	0	0	0	2	62658,32	0,300000012	4,14894533	0,00083382317038046003	0,30017634077784358	0,00124541519	-0,066112945259078426	0,0024667628774165043	0,44777273053252723
1	1	0	0	0	0	2	62868,32	0,300000012	4,16489363	0,0008338546400931145	0,30018766987437818	0,00125024968	-0,04860207946588007	0,0018134089310628166	0,46528359632572557
1	1	0	0	0	0	2	63078,32	0,300000012	4,18311214	0,0008338497793078423	0,30018591999168339	0,00125571142	-0,031091336411659002	0,0011600595642653957	0,48279433937994662
1	1	0	0	0	0	2	63247,13	0,300000012	4,19993353	0,00073476220175623885	0,30018883305987008	0,00126077316	-0,017015001486328646	0,00063485258236772749	0,49687067430527699