File: Experimentelles/Rohdaten/Batteriemessungen/AlteZelle/Studenten_Batterietests/LiCoO2 vs Li 300µm GCPL/ZView-Export/LiCoO2 vs Li 300µm GCPL_02_GCPL_C04_loop6.txt
EC-Lab ASCII FILE
Nb header lines : 3
mode	ox/red	error	control changes	Ns changes	counter inc.	Ns	time/s	control/V/mA	Ewe/V	dq/mA.h	<I>/mA	P/W	(Q-Qo)/mA.h	x	Capacity/mA.h
1	0	0	1	1	0	1	74296,44	-0,300000012	4,18318367	0	0	0	0	0	0
1	0	0	1	0	0	1	74466,44	-0,300000012	4,06528807	-0,00083291474395990374	-0,29984338133237376	0,00121894968	-0,014155395210469051	0,00052815682743387693	0,014155395210469051
1	0	0	1	0	0	1	74636,45	-0,300000012	4,03363943	-0,00083290566178659597	-0,29984011255198029	0,00120944693	-0,028314829284498384	0,0010564643502974979	0,028314829284498384
1	0	0	1	0	0	1	74806,45	-0,300000012	4,00719881	-0,0008328950366162592	-0,29983628794584186	0,00120150356	-0,042474093399671334	0,0015847655317676749	0,042474093399671334
1	0	0	1	0	0	1	74976,45	-0,300000012	3,97379518	-0,0008328989640689559	-0,299837701420408	0,00119149359	-0,056633568399701792	0,0021130745816354234	0,056633568399701792
1	0	0	1	0	0	1	75146,46	-0,300000012	3,9480412	-0,00083291322187748224	-0,29984283339353222	0,0011837919	-0,070792990831058163	0,0026413816700952627	0,070792990831058163
1	0	0	1	0	0	1	75316,46	-0,300000012	3,92411876	-0,00083291131323079258	-0,29984214629081414	0,00117661618	-0,08495243600216105	0,0031696896070056179	0,08495243600216105
1	0	0	1	0	0	1	75486,46	-0,300000012	3,90273356	-0,00083290556022690394	-0,29984007636731821	0,00117019587	-0,099111853092540595	0,0036979964961864301	0,099111853092540595
1	0	0	1	0	0	1	75656,47	-0,300000012	3,88464856	-0,00083291648390558029	-0,29984400881742093	0,00116478861	-0,11327132563590435	0,0042263054543926413	0,11327132563590435
1	0	0	1	0	0	1	75826,47	-0,300000012	3,86789894	-0,00083290471389558579	-0,2998397708144521	0,00115974993	-0,12743084836706941	0,0047546162851731974	0,12743084836706941
1	0	0	1	0	0	1	75996,47	-0,300000012	3,85271358	-0,00083291706005401088	-0,29984421510977248	0,00115521392	-0,14159030677134885	0,0052829247158311616	0,14159030677134885
1	0	0	1	0	0	1	76166,48	-0,300000012	3,83937883	-0,00083291149702171494	-0,29984221291499155	0,00115120783	-0,15574984828064934	0,0058112362472491968	0,15574984828064934
1	0	0	1	0	0	1	76336,48	-0,300000012	3,83079433	-0,00083292894882957133	-0,2998484961083632	0,00114865787	-0,16990948337242269	0,0063395512703551181	0,16990948337242269
1	0	0	1	0	0	1	76506,48	-0,300000012	3,81715417	-0,00083290616515941094	-0,29984029404098234	0,00114453665	-0,18406901279332829	0,0068678623507388877	0,18406901279332829
1	0	0	1	0	0	1	76676,49	-0,300000012	3,80126309	-0,00083290462765097613	-0,29983973952965056	0,00113976968	-0,19822842390137338	0,0073961690167107584	0,19822842390137338
1	0	0	1	0	0	1	76846,49	-0,300000012	3,78701258	-0,0008329067606909408	-0,29984050741235104	0,0011354998	-0,21238790244792659	0,0079244781989040397	0,21238790244792659
1	0	0	1	0	0	1	77016,49	-0,300000012	3,77051115	-0,00083290395316481587	-0,29983949768281619	0,00113054819	-0,22654736626883939	0,0084527868316638784	0,22654736626883939
1	0	0	1	0	0	1	77186,50	-0,300000012	3,74973631	-0,00083291361734602189	-0,29984297686939155	0,00112433208	-0,24070702915937632	0,0089811028919790438	0,24070702915937632
1	0	0	1	0	0	1	77356,50	-0,300000012	3,7291522	-0,00083290922651522688	-0,29984139560465875	0,00111815415	-0,2548664843777031	0,009509411203764832	0,2548664843777031
1	0	0	1	0	0	1	77526,50	-0,300000012	3,70231104	-0,00083291323284639245	-0,29984283734226189	0,00111011148	-0,2690260698494855	0,010037724375482176	0,2690260698494855
1	0	0	1	0	0	1	77696,51	-0,300000012	3,67386723	-0,00083290732839537997	-0,29984071197388915	0,00110157498	-0,28318565764978304	0,010566037634079552	0,28318565764978304
1	0	0	1	0	0	1	77866,51	-0,300000012	3,64111209	-0,0008329165413694249	-0,2998440295005056	0,00109176571	-0,29734528934188966	0,011094352530339334	0,29734528934188966
1	0	0	1	0	0	1	78036,51	-0,300000012	3,60085964	-0,00083290955641700147	-0,29984151497081491	0,00107968727	-0,31150475594071334	0,011622661266746765	0,31150475594071334
1	0	0	1	0	0	1	78206,52	-0,300000012	3,55419755	-0,00083291085039244762	-0,29984197968626541	0,00106569764	-0,32566434229811149	0,012150974471507622	0,32566434229811149
1	0	0	1	0	0	1	78376,52	-0,300000012	3,49423862	-0,00083291405246986278	-0,2998431324008793	0,00104772346	-0,3398238083187751	0,012679283186343122	0,3398238083187751
1	0	0	1	0	0	1	78546,52	-0,300000012	3,41321874	-0,0008329040530771017	-0,29983953337128646	0,00102341792	-0,35398323083037434	0,013207590277796928	0,35398323083037434
1	0	0	1	0	0	1	78716,53	-0,300000012	3,30119896	-0,00083290912795563546	-0,2998413607277712	0,000989835942	-0,36814276214765965	0,013735901428937174	0,36814276214765965
1	0	0	1	0	0	1	78886,53	-0,300000012	3,14892673	-0,0008329197165518999	-0,29984517222247411	0,000944190484	-0,38230247236986746	0,014264219255260621	0,38230247236986746
1	0	0	1	0	0	1	79056,53	-0,300000012	2,92000318	-0,00083293515367805952	-0,2998507286856873	0,000875565107	-0,39646224026052282	0,014792539233271379	0,39646224026052282
1	0	0	1	0	0	1	79226,54	-0,300000012	2,52789569	-0,00083292356150680115	-0,2998465555865168	0,000757980801	-0,41062208383465101	0,015320862035134266	0,41062208383465101
1	0	0	1	0	0	1	79396,54	-0,300000012	2,00688481	-0,00083291281842192013	-0,29984268926588902	0,000601749751	-0,42478166656835981	0,015849175104690406	0,42478166656835981
1	1	0	0	0	0	2	79548,78	0,300000012	3,93808794	0,00083385756309661594	0,30018279000231962	0,00118214625	-0,41246013672204742	0,015389442259651418	0,012507983412707845
1	1	0	0	0	0	2	79718,79	0,300000012	3,96002626	0,00083386541527840832	0,30018561736091757	0,00118874293	-0,39828446773797862	0,014860528990466157	0,026683652396776608
1	1	0	0	0	0	2	79888,79	0,300000012	3,97635627	0,00083386828427016742	0,30018665004824192	0,00119364902	-0,38410886505612826	0,014331618195105808	0,040859255078626995
1	1	0	0	0	0	2	80058,79	0,300000012	3,98684859	0,00083386144855784051	0,30018418825148134	0,00119678886	-0,36993309646093107	0,013802701209295419	0,055035023673824122
1	1	0	0	0	0	2	80228,80	0,300000012	3,9910264	0,00083385367977619162	0,30018139154187104	0,00119803182	-0,35575757500486496	0,013273793444578288	0,069210545129890214
1	1	0	0	0	0	2	80398,80	0,300000012	3,99747443	0,00083384962137043482	0,30017993155458182	0,00119996164	-0,34158210998653613	0,012744887785629018	0,083386010148218893
1	1	0	0	0	0	2	80568,80	0,300000012	4,0059638	0,00083386366398301389	0,30018498690703437	0,00120253023	-0,32740650656238266	0,012215976962572347	0,097561613572372275
1	1	0	0	0	0	2	80738,81	0,300000012	4,01502514	0,00083387077058189453	0,30018754458557869	0,00120526052	-0,3132308000074665	0,011687062291568253	0,11173732012728843
1	1	0	0	0	0	2	80908,81	0,300000012	4,02416325	0,00083385338067180582	0,30018128386991482	0,00120797846	-0,29905507484897702	0,011158146926439829	0,12591304528577784
1	1	0	0	0	0	2	81078,81	0,300000012	4,03480816	0,00083387563853793664	0,30018929676394541	0,0012112062	-0,28487946317187341	0,010629235795454488	0,14008865696288139
1	1	0	0	0	0	2	81248,82	0,300000012	4,04417467	0,00083387968951298138	0,30019075598381664	0,0012140238	-0,2707035749000135	0,010100314344346904	0,15426454523474128
1	1	0	0	0	0	2	81418,82	0,300000012	4,05369425	0,00083385240995387238	0,30018093553311034	0,00121684175	-0,25652784667913024	0,0095713988649564506	0,16844027345562461
1	1	0	0	0	0	2	81588,82	0,300000012	4,06275606	0,00083385708004401792	0,30018261561409434	0,00121956877	-0,24235220281875376	0,0090424865331699277	0,18261591731600112
1	1	0	0	0	0	2	81758,83	0,300000012	4,07296181	0,0008338507968170775	0,30018035370059776	0,00122262316	-0,22817649967539219	0,0085135719894555238	0,19679162045936272
1	1	0	0	0	0	2	81928,83	0,300000012	4,08192825	0,00083386593225763904	0,3001858030766256	0,00122533692	-0,21400083376422592	0,0079846588349243866	0,21096728637052896
1	1	0	0	0	0	2	82098,83	0,300000012	4,09242058	0,00083384927225940762	0,30017980598891917	0,00122846197	-0,1998251807194624	0,0074557461604560346	0,22514293941529251
1	1	0	0	0	0	2	82268,84	0,300000012	4,10049009	0,00083384523397849664	0,30017835187003744	0,00123087841	-0,18564972341655267	0,0069268407893794266	0,23931839671820224
1	1	0	0	0	0	2	82438,84	0,300000012	4,10604143	0,00083386295127537523	0,3001847292191015	0,00123257097	-0,1714741392517329	0,0063979306849143872	0,25349398088302195
1	1	0	0	0	0	2	82608,84	0,300000012	4,11502647	0,00083385355055332186	0,30018134502255738	0,00123525423	-0,15729856574936784	0,0058690209782798682	0,26766955438538714
1	1	0	0	0	0	2	82778,85	0,300000012	4,12452698	0,00083385638426740954	0,30018236626120486	0,00123811024	-0,14312304386425758	0,0053401131975545254	0,28184507627049747
1	1	0	0	0	0	2	82948,85	0,300000012	4,13383675	0,00083386254221200947	0,30018458307745306	0,00124091411	-0,12894740584745909	0,0048112010837997536	0,29602071428729587
1	1	0	0	0	0	2	83118,85	0,300000012	4,14698076	0,00083385199786225958	0,30018078631817382	0,00124484394	-0,1147719049378641	0,004282294085699088	0,31019621519689082
1	1	0	0	0	0	2	83288,86	0,300000012	4,15484047	0,00083386919972631667	0,30018697861698042	0,00124722905	-0,1005963412895955	0,0037533847467341574	0,32437177884515936
1	1	0	0	0	0	2	83458,86	0,300000012	4,16891909	0,00083386322039696896	0,3001848265452041	0,0012514462	-0,086420640985603878	0,0032244703089604653	0,33854747914915104
1	1	0	0	0	0	2	83628,86	0,300000012	4,1789155	0,00083384491926266086	0,30017823894105773	0,00125441945	-0,072245048758035635	0,0026955599036634384	0,3527230713767193
1	1	0	0	0	0	2	83798,87	0,300000012	4,19329929	0,00083387058900958963	0,30018747977997248	0,00125877594	-0,058069399382866842	0,0021666473661126	0,36689872075188813
1	1	0	0	0	0	2	83900,78	0,300000012	4,19991446	0,00015916586152381366	0,30018715320937222	0,00126076036	-0,049571567657590675	0,0018495818389862762	0,37539655247716422