File: Experimentelles/Rohdaten/Batteriemessungen/AlteZelle/Studenten_Batterietests/LiCoO2 vs Li 300µm GCPL/ZView-Export/LiCoO2 vs Li 300µm GCPL_02_GCPL_C04_loop3.txt
EC-Lab ASCII FILE
Nb header lines : 3
mode	ox/red	error	control changes	Ns changes	counter inc.	Ns	time/s	control/V/mA	Ewe/V	dq/mA.h	<I>/mA	P/W	(Q-Qo)/mA.h	x	Capacity/mA.h
1	0	0	1	1	0	1	38272,22	-0,300000012	4,18656063	0	0	0	0	0	0
1	0	0	1	0	0	1	38492,22	-0,300000012	4,1024313	-0,00083288735522164237	-0,29983944732129677	0,00123007072	-0,018319573593629741	0,00068352792170698445	0,018319573593629741
1	0	0	1	0	0	1	38712,22	-0,300000012	4,0658226	-0,00083289213246603802	-0,29984116712927597	0,00121910102	-0,036643236678693043	0,0013672084278377349	0,036643236678693043
1	0	0	1	0	0	1	38932,22	-0,300000012	4,04039288	-0,00083289323574304576	-0,29984156430899808	0,00121147768	-0,054966898729658797	0,0020508888953849152	0,054966898729658797
1	0	0	1	0	0	1	39152,22	-0,300000012	4,00971699	-0,00083289744560254938	-0,29984307985841651	0,00120228587	-0,073290650441280691	0,0027345727082917264	0,073290650441280691
1	0	0	1	0	0	1	39372,22	-0,300000012	3,98800755	-0,00083290949581894605	-0,29984741793631123	0,00119579374	-0,091614654886606694	0,0034182659510328416	0,091614654886606694
1	0	0	1	0	0	1	39592,22	-0,300000012	3,97722888	-0,00083289499434000909	-0,29984219740390368	0,00119254109	-0,10993866050907971	0,0041019592376948954	0,10993866050907971
1	0	0	1	0	0	1	39812,22	-0,300000012	3,96912122	-0,00083290752286381184	-0,29984670767246426	0,00119012792	-0,12826247938050331	0,0047856455564242054	0,12826247938050331
1	0	0	1	0	0	1	40032,22	-0,300000012	3,94899511	-0,00083291562490496371	-0,29984962440727347	0,00118410471	-0,1465865600618687	0,0054693416436344506	0,1465865600618687
1	0	0	1	0	0	1	40252,22	-0,300000012	3,92392802	-0,00083292494714756813	-0,29985298041460486	0,00117660151	-0,16491070256061354	0,0061530400373342374	0,16491070256061354
1	0	0	1	0	0	1	40472,22	-0,300000012	3,91074586	-0,00083291686475939226	-0,29985007075486694	0,00117263745	-0,18323492029082611	0,0068367412380212352	0,18323492029082611
1	0	0	1	0	0	1	40692,22	-0,300000012	3,89483571	-0,00083291378286315328	-0,29984896127222298	0,00116786244	-0,20155901511313683	0,0075204378528491648	0,20155901511313683
1	0	0	1	0	0	1	40912,22	-0,300000012	3,8821876	-0,00083291161042948557	-0,29984817919610406	0,00116406684	-0,21988318500030538	0,008204137268447863	0,21988318500030538
1	0	0	1	0	0	1	41132,22	-0,300000012	3,8717525	-0,00083292639674743027	-0,29985350227055418	0,00116095855	-0,23820734091055389	0,0088878361625488858	0,23820734091055389
1	0	0	1	0	0	1	41352,22	-0,300000012	3,86179423	-0,00083292928112215462	-0,29985454064545306	0,00115797657	-0,25653171103180944	0,0095715430491505882	0,25653171103180944
1	0	0	1	0	0	1	41572,22	-0,300000012	3,85526991	-0,0008329169299668736	-0,29985009422956019	0,0011560031	-0,27485595534985264	0,010255245241865293	0,27485595534985264
1	0	0	1	0	0	1	41792,22	-0,300000012	3,85334325	-0,0008329184022876951	-0,29985062426505491	0,00115542742	-0,29318001375829331	0,010938940498042773	0,29318001375829331
1	0	0	1	0	0	1	42012,22	-0,300000012	3,84832597	-0,00083290296152399642	-0,29984506559013376	0,00115390157	-0,31150411773632954	0,011622637454483128	0,31150411773632954
1	0	0	1	0	0	1	42232,22	-0,300000012	3,84464407	-0,00083291028494636224	-0,29984770202218054	0,00115280773	-0,32982830774117498	0,012306337620699402	0,32982830774117498
1	0	0	1	0	0	1	42452,22	-0,300000012	3,84088588	-0,00083292272862295309	-0,2998521817457449	0,00115169806	-0,34815241061052013	0,012990034535773002	0,34815241061052013
1	0	0	1	0	0	1	42672,22	-0,300000012	3,82734132	-0,00083291185571584435	-0,29984826749919302	0,00114762166	-0,36647669555037875	0,013673738244142262	0,36647669555037875
1	0	0	1	0	0	1	42892,22	-0,300000012	3,81433082	-0,00083291149591737318	-0,29984813797174368	0,00114372	-0,3848009764804409	0,014357441802900618	0,3848009764804409
1	0	0	1	0	0	1	43112,22	-0,300000012	3,80305648	-0,00083290819562309312	-0,29984694986580506	0,00114033488	-0,40312506343611578	0,015041138124213789	0,40312506343611578
1	0	0	1	0	0	1	43332,22	-0,300000012	3,79044652	-0,00083291009040342438	-0,29984763198672301	0,00113655638	-0,42144923580726976	0,015724837632493325	0,42144923580726976
1	0	0	1	0	0	1	43552,22	-0,300000012	3,77886677	-0,00083291005135575936	-0,29984761792956365	0,00113308418	-0,43977334451666803	0,016408534765467162	0,43977334451666803
1	0	0	1	0	0	1	43772,22	-0,300000012	3,7538569	-0,0008329142812738816	-0,29984914070008486	0,00112559076	-0,45809755699400928	0,017092235770162467	0,45809755699400928
1	0	0	1	0	0	1	43992,22	-0,300000012	3,69700766	-0,00083291701866851917	-0,29985012616215251	0,00110854825	-0,47642167032101587	0,017775933075425475	0,47642167032101587
1	0	0	1	0	0	1	44212,22	-0,300000012	3,59465981	-0,00083290672271284787	-0,29984641961811776	0,00107784593	-0,49474582171057325	0,018459631800853434	0,49474582171057325
1	0	0	1	0	0	1	44432,22	-0,300000012	3,35764766	-0,00083292155240310566	-0,29985175830660058	0,00100679661	-0,51306977130398822	0,019143322996996	0,51306977130398822
1	0	0	1	0	0	1	44652,22	-0,300000012	2,53218794	-0,00083290603466828672	-0,29984617192207616	0,000759266841	-0,53139385187045088	0,019827019079919069	0,53139385187045088
1	1	0	0	0	0	2	44857,78	0,300000012	3,88657999	0,00083383835096326131	0,30018180578764192	0,00116668059	-0,53184746448360211	0,019843943976404387	0,0083383548566699046
1	1	0	0	0	0	2	45077,78	0,300000012	3,91082692	0,00083382425123287565	0,30017672988471251	0,00117393921	-0,51350329203585587	0,019159498238376806	0,026682527304415898
1	1	0	0	0	0	2	45297,78	0,300000012	3,91008282	0,00083383144334455334	0,30017931904491162	0,00117372605	-0,49515914194676915	0,01847505333458087	0,045026677393502643
1	1	0	0	0	0	2	45517,78	0,300000012	3,91439414	0,0008338350090202359	0,30018060268815494	0,00117502525	-0,47681482125121651	0,01779060206522831	0,063370998089055194
1	1	0	0	0	0	2	45737,78	0,300000012	3,91937327	0,00083382425835397504	0,30017673244830829	0,00117650465	-0,45847061212899584	0,017106154958826781	0,081715207211275891
1	1	0	0	0	0	2	45957,78	0,300000012	3,93204045	0,00083383105254835546	0,3001791783582807	0,00118031667	-0,44012629851115526	0,016421703953553171	0,1000595208291163
1	1	0	0	0	0	2	46177,78	0,300000012	3,93778253	0,00083383417187962266	0,30018030131753478	0,00118204474	-0,42178223311198701	0,015737262209651962	0,11840358622828458
1	1	0	0	0	0	2	46397,78	0,300000012	3,94344854	0,00083382919811871322	0,30017851076361069	0,00118373847	-0,40343796477491597	0,015052812893864749	0,13674785456535546
1	1	0	0	0	0	2	46617,78	0,300000012	3,9493432	0,00083382533593972518	0,3001771203791776	0,00118550251	-0,38509385461801069	0,014368369479992192	0,15509196472226074
1	1	0	0	0	0	2	46837,78	0,300000012	3,95348287	0,00083383883891503014	0,30018198145027834	0,00118676433	-0,36674962882917901	0,013683921751736994	0,17343619051109248
1	1	0	0	0	0	2	47057,78	0,300000012	3,95996904	0,00083385049791634074	0,3001861786907424	0,00118872803	-0,34840513813974573	0,012999464139684189	0,19178068120052576
1	1	0	0	0	0	2	47277,78	0,300000012	3,96737099	0,00083384216743210957	0,30018317971642464	0,00119093806	-0,33006063627245798	0,012315006110570603	0,21012518306781344
1	1	0	0	0	0	2	47497,78	0,300000012	3,96939301	0,00083383256292012006	0,30017972209211488	0,00119153131	-0,3117163456685289	0,011630555963976978	0,22846947367174256
1	1	0	0	0	0	2	47717,78	0,300000012	3,97542143	0,00083382737116515635	0,30017785306033146	0,00119333342	-0,29337211886351584	0,010946108197806685	0,24681370047675555
1	1	0	0	0	0	2	47937,78	0,300000012	3,97946572	0,00083382242283887334	0,30017607166287283	0,00119454041	-0,27502792090027968	0,010261661507761867	0,26515789843999178
1	1	0	0	0	0	2	48157,78	0,300000012	3,99192309	0,0008338384157402647	0,30018182910736307	0,00119830272	-0,25668361924990112	0,0095772109490103603	0,2835022000903703
1	1	0	0	0	0	2	48377,78	0,300000012	3,99684477	0,00083384269361860224	0,30018336914356166	0,00119978632	-0,23833937773035562	0,008892762633821079	0,30184644160991578
1	1	0	0	0	0	2	48597,78	0,300000012	4,00907326	0,00083383512440820544	0,30018064422782394	0,00120344618	-0,21999501527593792	0,0082083098063891187	0,32019080406433344
1	1	0	0	0	0	2	48817,78	0,300000012	4,00844383	0,00083382594204280102	0,30017733857628454	0,00120324397	-0,20165073066138326	0,007523859883267104	0,338535088678888
1	1	0	0	0	0	2	49037,78	0,300000012	4,01660872	0,000833827212833696	0,30017779606100582	0,00120569672	-0,18330647581858531	0,0068394110709693619	0,35687934352168589
1	1	0	0	0	0	2	49257,78	0,300000012	4,02492619	0,00083383249421583283	0,30017969735857158	0,00120820117	-0,1649622436155769	0,0061549631033926054	0,37522357572469427
1	1	0	0	0	0	2	49477,78	0,300000012	4,03763151	0,00083383318598734003	0,30017994639631373	0,00121201598	-0,14661800903171558	0,0054705150469830266	0,39356781030855558
1	1	0	0	0	0	2	49697,78	0,300000012	4,04802847	0,00083383269802398144	0,3001797707295049	0,00121513626	-0,1282736104027141	0,0047860608698287078	0,41191220893755706
1	1	0	0	0	0	2	49917,78	0,300000012	4,06344271	0,00083383491758505498	0,30018056977148992	0,00121976656	-0,10992940836043579	0,004101614027589344	0,43025641097983533
1	1	0	0	0	0	2	50137,78	0,300000012	4,08192825	0,00083383390644854963	0,30018020576234867	0,0012253141	-0,091585006006293069	0,0034171597114449971	0,44860081333397792
1	1	0	0	0	0	2	50357,78	0,300000012	4,09993696	0,00083382403775056192	0,30017665303107968	0,00123070541	-0,073240706712266726	0,0027327092406121571	0,46694511262800435
1	1	0	0	0	0	2	50577,78	0,300000012	4,13049793	0,00083381754111912512	0,30017431424376678	0,00123986939	-0,054896449797518656	0,0020482603510071699	0,48528936954275238
1	1	0	0	0	0	2	50797,78	0,300000012	4,1655426	0,00083381464442776307	0,3001732714348784	0,00125038461	-0,036552328987514925	0,0013638165396531886	0,50363349035275629
1	1	0	0	0	0	2	51017,78	0,300000012	4,18822479	0,00083382245576547251	0,30017608351644858	0,00125720492	-0,018208216799043235	0,0006793730499801591	0,52197760254122784
1	1	0	0	0	0	2	51118,43	0,300000012	4,19978094	5,4449608706765702E-005	0,30018160949089587	0,00126069703	-0,0098154442370808282	0,00036622742149061914	0,53037037510319027