File: Experimentelles/Rohdaten/Batterietests/AlteZelle/Studenten_Batterietests/ASS Batterie 02/ECLab-Export/LiNiMnO-LATP-LTO_03_OCV_C01.mpt
EC-Lab ASCII FILE
Nb header lines : 49

Open Circuit Voltage

Run on channel : 1 (SN 6985)
Grouped channel(s) : 1
User :
CE vs. WE compliance from -10 V to 10 V
Electrode connection : standard
Ewe ctrl range : min = -2,50 V, max = 2,50 V
Acquisition started on : 01.29.2015 17:18:52
Saved on :
	File : LiNiMnO-LATP-LTO_03_OCV_C01.mpr
	Directory : C:\Hupfer\Studenten Batterietests\ASS Batterie 02\
	Host : 192.168.0.2
Device : VMP3 (SN 0324)
Address : 192.168.0.1
EC-Lab for windows v10.33 (software)
Internet server v10.33 (firmware)
Command interpretor v10.32 (firmware)
Electrode material :
Initial state :
Electrolyte :
Comments :
Mass of active material : 0,001 mg
 at x = 0,000
Molecular weight of active material (at x = 0) : 0,001 g/mol
Atomic weight of intercalated ion : 0,001 g/mol
Acquisition started at : xo = 0,000
Number of e- transfered per intercalated ion : 1
for DX = 1, DQ = 26,801 mA.h
Battery capacity : 0,000 A.h
Electrode surface area : 0,001 cm²
Characteristic mass : 0,001 g
tR (h:m:s)          1:00:0,0000
dER/dt (mV/h)       0,0
dER (mV)            0,00
dtR (s)             5,0000
E range min (V)     -2,500
E range max (V)     2,500

Modify on : 01.29.2015 17:47
tR (h:m:s)          0:20:0,0000

Number of loops : 1
Loop 0 from point number 0 to 240

mode	error	time/s	Ewe/V
3	0	613,5560	0,137359321
3	0	618,5560	0,139729679
3	0	623,5560	0,140741706
3	0	628,5560	0,140149772
3	0	633,5560	0,138373941
3	0	638,5560	0,137839288
3	0	643,5560	0,135815218
3	0	648,5560	0,136273503
3	0	653,5560	0,134994149
3	0	658,5560	0,134707719
3	0	663,5560	0,133542925
3	0	668,5560	0,133752972
3	0	673,5560	0,133963019
3	0	678,5560	0,134249449
3	0	683,5560	0,135280564
3	0	688,5560	0,135834321
3	0	693,5560	0,138125703
3	0	698,5560	0,138106614
3	0	703,5560	0,139042258
3	0	708,5560	0,138774931
3	0	713,5560	0,138125703
3	0	718,5560	0,137705624
3	0	723,5560	0,136120737
3	0	728,5560	0,135414228
3	0	733,5560	0,135318756
3	0	738,5560	0,135108709
3	0	743,5560	0,135261476
3	0	748,5560	0,135166004
3	0	753,5560	0,134688631
3	0	758,5560	0,133905739
3	0	763,5560	0,133829355
3	0	768,5560	0,13325651
3	0	773,5560	0,133180127
3	0	778,5560	0,133008271
3	0	783,5560	0,133676589
3	0	788,5560	0,134249449
3	0	793,5560	0,134325817
3	0	798,5560	0,134153962
3	0	803,5560	0,134039402
3	0	808,5560	0,135166004
3	0	813,5560	0,135108709
3	0	818,5560	0,135395139
3	0	823,5560	0,135586083
3	0	828,5560	0,135547891
3	0	833,5560	0,13545242
3	0	838,5560	0,137591049
3	0	843,5560	0,139042258
3	0	848,5560	0,1400543
3	0	853,5560	0,138889506
3	0	858,5560	0,135166004
3	0	863,5560	0,133122846
3	0	868,5560	0,13325651
3	0	873,5560	0,134803191
3	0	878,5560	0,137743816
3	0	883,5560	0,13971059
3	0	888,5560	0,13936688
3	0	893,5560	0,137228251
3	0	898,5560	0,135166004
3	0	903,5560	0,1336575
3	0	908,5560	0,132473618
3	0	913,5560	0,133638412
3	0	918,5560	0,135013238
3	0	923,5560	0,137820184
3	0	928,5560	0,139214113
3	0	933,5560	0,139519632
3	0	938,5560	0,139557824
3	0	943,5560	0,139290497
3	0	948,5560	0,137591049
3	0	953,5560	0,13654083
3	0	958,5560	0,135127813
3	0	963,5560	0,134669527
3	0	968,5560	0,13331379
3	0	973,5560	0,132492706
3	0	978,5560	0,133027375
3	0	983,5560	0,134478584
3	0	988,5560	0,135185093
3	0	993,5560	0,135108709
3	0	998,5560	0,135185093
3	0	1003,5560	0,135108709
3	0	1008,5560	0,135223284
3	0	1013,5560	0,135223284
3	0	1018,5560	0,134726807
3	0	1023,5560	0,136521742
3	0	1028,5560	0,137266442
3	0	1033,5560	0,137285531
3	0	1038,5560	0,137285531
3	0	1043,5560	0,137361914
3	0	1048,5560	0,137762904
3	0	1053,5560	0,138832226
3	0	1058,5560	0,139653295
3	0	1063,5560	0,139118642
3	0	1068,5560	0,13682726
3	0	1073,5560	0,134764999
3	0	1078,5560	0,13331379
3	0	1083,5560	0,132148996
3	0	1088,5560	0,132550001
3	0	1093,5560	0,133008271
3	0	1098,5560	0,132721856
3	0	1103,5560	0,133581117
3	0	1108,5560	0,135013238
3	0	1113,5560	0,136922732
3	0	1118,5560	0,137381002
3	0	1123,5560	0,138545796
3	0	1128,5560	0,139290497
3	0	1133,5560	0,139328688
3	0	1138,5560	0,139385968
3	0	1143,5560	0,139538735
3	0	1148,5560	0,139519632
3	0	1153,5560	0,139004067
3	0	1158,5560	0,13833575
3	0	1163,5560	0,138373941
3	0	1168,5560	0,136769965
3	0	1173,5560	0,136999115
3	0	1178,5560	0,134803191
3	0	1183,5560	0,134344921
3	0	1188,5560	0,132607281
3	0	1193,5560	0,131900772
3	0	1198,5560	0,132282659
3	0	1203,5560	0,132740945
3	0	1208,5560	0,13337107
3	0	1213,5560	0,13337107
3	0	1218,5560	0,133523837
3	0	1223,5560	0,13331379
3	0	1228,5560	0,133351982
3	0	1233,5560	0,133180127
3	0	1238,5560	0,134726807
3	0	1243,5560	0,136750877
3	0	1248,5560	0,137190059
3	0	1253,5560	0,138297558
3	0	1258,5560	0,138660371
3	0	1263,5560	0,138698548
3	0	1268,5560	0,138564885
3	0	1273,5560	0,138603076
3	0	1278,5560	0,138488516
3	0	1283,5560	0,139004067
3	0	1288,5560	0,139290497
3	0	1293,5560	0,13896589
3	0	1298,5560	0,138984978
3	0	1303,5560	0,138163894
3	0	1308,5560	0,136235312
3	0	1313,5560	0,134268537
3	0	1318,5560	0,134192154
3	0	1323,5560	0,133982107
3	0	1328,5560	0,133161038
3	0	1333,5560	0,132282659
3	0	1338,5560	0,132034436
3	0	1343,5560	0,132779136
3	0	1348,5560	0,133485645
3	0	1353,5560	0,135013238
3	0	1358,5560	0,137056395
3	0	1363,5560	0,138240278
3	0	1368,5560	0,139596015
3	0	1373,5560	0,138851315
3	0	1378,5560	0,13688454
3	0	1383,5560	0,13394393
3	0	1388,5560	0,132320851
3	0	1393,5560	0,132072628
3	0	1398,5560	0,132225379
3	0	1403,5560	0,133237407
3	0	1408,5560	0,134707719
3	0	1413,5560	0,136769965
3	0	1418,5560	0,137705624
3	0	1423,5560	0,139118642
3	0	1428,5560	0,139042258
3	0	1433,5560	0,137953848
3	0	1438,5560	0,134153962
3	0	1443,5560	0,132053524
3	0	1448,5560	0,132664561
3	0	1453,5560	0,133065552
3	0	1458,5560	0,135299668
3	0	1463,5560	0,137304634
3	0	1468,5560	0,139576927
3	0	1473,5560	0,138182998
3	0	1478,5560	0,136808157
3	0	1483,5560	0,133982107
3	0	1488,5560	0,132320851
3	0	1493,5560	0,131748006
3	0	1498,5560	0,131958053
3	0	1503,5560	0,132492706
3	0	1508,5560	0,133084655
3	0	1513,5560	0,134745911
3	0	1518,5560	0,136655405
3	0	1523,5560	0,137075484
3	0	1528,5560	0,138144806
3	0	1533,5560	0,13867946
3	0	1538,5560	0,138870403
3	0	1543,5560	0,138870403
3	0	1548,5560	0,138431221
3	0	1553,5560	0,136769965
3	0	1558,5560	0,133905739
3	0	1563,5560	0,132168099
3	0	1568,5560	0,131938964
3	0	1573,5560	0,131652534
3	0	1578,5560	0,132053524
3	0	1583,5560	0,132817328
3	0	1588,5560	0,134421289
3	0	1593,5560	0,135681555
3	0	1598,5560	0,13688454
3	0	1603,5560	0,139042258
3	0	1608,5560	0,138698548
3	0	1613,5560	0,134344921
3	0	1618,5560	0,131805301
3	0	1623,5560	0,132950991
3	0	1628,5560	0,13659811
3	0	1633,5560	0,138583988
3	0	1638,5560	0,138030231
3	0	1643,5560	0,134192154
3	0	1648,5560	0,131728917
3	0	1653,5560	0,132339954
3	0	1658,5560	0,134764999
3	0	1663,5560	0,138144806
3	0	1668,5560	0,139061362
3	0	1673,5560	0,1362544
3	0	1678,5560	0,132664561
3	0	1683,5560	0,131748006
3	0	1688,5560	0,134134874
3	0	1693,5560	0,136846349
3	0	1698,5560	0,139042258
3	0	1703,5560	0,138240278
3	0	1708,5560	0,134383112
3	0	1713,5560	0,131843477
3	0	1718,5560	0,132454515
3	0	1723,5560	0,134402201
3	0	1728,5560	0,137342811
3	0	1733,5560	0,139328688
3	0	1738,5560	0,138068423
3	0	1743,5560	0,134306729
3	0	1748,5560	0,13256909
3	0	1753,5560	0,131270632
3	0	1758,5560	0,132607281
3	0	1763,5560	0,13573885
3	0	1768,5560	0,138431221
3	0	1773,5560	0,138946787
3	0	1778,5560	0,136521742
3	0	1783,5560	0,132989183
3	0	1788,5560	0,131557062
3	0	1793,5560	0,131977141
3	0	1798,5560	0,132511809
3	0	1803,5560	0,13654083
3	0	1808,5560	0,138488516
3	0	1813,5560	0,138813123