File: Experimentelles/Rohdaten/Batteriemessungen/AlteZelle/Studenten_Batterietests/S vs Li GCPL 200µm/ECLab-Export/S vs Li GCPL 200µm_02_GCPL_C05_loop2.mpt
EC-Lab ASCII FILE
Nb header lines : 3
mode	ox/red	error	control changes	Ns changes	counter inc.	Ns	time/s	control/V/mA	Ewe/V	dq/mA.h	<I>/mA	P/W	(Q-Qo)/mA.h	x	Capacity/mA.h
1	0	0	1	1	0	1	87718,88	-0,200000003	3,4704802	0	0	0	0	0	0
1	0	0	1	0	0	1	88268,89	-0,200000003	2,11866474	-0,00055479809745318355	-0,1997233678706471	0,000423146848	-0,030511447293562995	0,0011384231216000226	0,030511447293562995
1	0	0	1	0	0	1	88818,90	-0,200000003	2,09820938	-0,00055480309247142739	-0,19972516636951053	0,000419065211	-0,061025455081201229	0,0022769417786766125	0,061025455081201229
1	0	0	1	0	0	1	89368,91	-0,200000003	2,08396316	-0,00055480327719449997	-0,19972523216168371	0,00041622002	-0,091539358846677645	0,003415456554546487	0,091539358846677645
1	0	0	1	0	0	1	89918,92	-0,200000003	2,0584228	-0,0005547989049802224	-0,19972365893734256	0,000411115732	-0,12205345761477366	0,004553978606226281	0,12205345761477366
1	0	0	1	0	0	1	90468,93	-0,200000003	2,04122424	-0,00055479661508980717	-0,19972283385139763	0,000407679094	-0,15256739948363776	0,0056924948037847802	0,15256739948363776
1	0	0	1	0	0	1	91018,94	-0,200000003	2,02598763	-0,00055480300767388614	-0,1997251356732695	0,000404640654	-0,1830814667396257	0,0068310156797054541	0,1830814667396257
1	0	0	1	0	0	1	91568,96	-0,200000003	1,99374306	-0,00055481502600924845	-0,19972946219779715	0,000398209231	-0,21359572244107818	0,0079695435867797786	0,21359572244107818
1	0	0	1	0	0	1	92118,97	-0,200000003	1,94862342	-0,00055480078693976006	-0,19972433568769642	0,000389187509	-0,24411022090060198	0,0091080805514841331	0,24411022090060198
1	0	0	1	0	0	1	92668,98	-0,200000003	1,90323722	-0,0005548097305736608	-0,19972755607425744	0,000380128913	-0,27462472755869478	0,010246617822088123	0,27462472755869478
1	0	0	1	0	0	1	93218,99	-0,200000003	1,857813	-0,00055481229734089638	-0,1997284793502048	0,000371058151	-0,30513915970123149	0,011385152312416528	0,30513915970123149
1	0	0	1	0	0	1	93769,00	-0,200000003	1,85508943	-0,00055483178666647936	-0,19973549606397014	0,00037052721	-0,33565408172386906	0,012523705080830144	0,33565408172386906
1	0	0	1	0	0	1	94319,01	-0,200000003	1,86021268	-0,00055482215003834822	-0,19973202664878102	0,00037154404	-0,36616922334027136	0,013662266042582371	0,36616922334027136
1	0	0	1	0	0	1	94869,02	-0,200000003	1,86276484	-0,00055482134553541741	-0,19973173663585114	0,00037205327	-0,39668397859819923	0,014800812588780454	0,39668397859819923
1	0	0	1	0	0	1	95419,03	-0,200000003	1,86817384	-0,00055482677452680141	-0,19973369178078723	0,000373137271	-0,42719897297351002	0,015939368056769587	0,42719897297351002
1	0	0	1	0	0	1	95969,04	-0,200000003	1,86952615	-0,00055482612126734528	-0,1997334558653641	0,000373406918	-0,45771410507072954	0,017077928663348307	0,45771410507072954
1	0	0	1	0	0	1	96519,05	-0,200000003	1,87224972	-0,00055481831107371386	-0,199730644992944	0,000373945659	-0,48822924241905606	0,018216489465852886	0,48822924241905606
1	0	0	1	0	0	1	97069,06	-0,200000003	1,87565887	-0,00055480831328117178	-0,19972704534723517	0,000374619791	-0,51874424060611738	0,019355045076063555	0,51874424060611738
1	0	0	1	0	0	1	97619,07	-0,200000003	1,87605882	-0,00055482153278175322	-0,19973180417340746	0,000374708616	-0,54925911870938579	0,020493596205786464	0,54925911870938579
1	0	0	1	0	0	1	98169,09	-0,200000003	1,87457323	-0,00055480922943684794	-0,19972737566827926	0,000374403578	-0,57977396263963328	0,02163214606046801	0,57977396263963328
1	0	0	1	0	0	1	98719,10	-0,200000003	1,87419236	-0,00055480790588259693	-0,19972689845646384	0,000374326628	-0,61028827088218611	0,022770675927921427	0,61028827088218611
1	0	0	1	0	0	1	99269,11	-0,200000003	1,87421143	-0,00055480805643399558	-0,19972695339792227	0,000374330528	-0,64080282459590362	0,023909214954234045	0,64080282459590362
1	0	0	1	0	0	1	99819,12	-0,200000003	1,87518275	-0,00055481967379152768	-0,19973113489202496	0,000374532392	-0,67131757688900634	0,025047761389810509	0,67131757688900634
1	0	0	1	0	0	1	100369,13	-0,200000003	1,87150693	-0,00055482781187858848	-0,19973406476170275	0,00037380369	-0,7018325916503799	0,026186317618431059	0,7018325916503799
1	0	0	1	0	0	1	100919,14	-0,200000003	1,86468852	-0,00055481548736161651	-0,1997296284766769	0,00037243354	-0,73234743561001024	0,027324867474208922	0,73234743561001024
1	0	0	1	0	0	1	101469,15	-0,200000003	1,85476565	-0,00055481006167994605	-0,19972767452817021	0,000370448019	-0,76286246224313882	0,028463424145780608	0,76286246224313882
1	0	0	1	0	0	1	102019,16	-0,200000003	1,83901477	-0,0005548214677158329	-0,19973178136397552	0,000367309694	-0,7933772655533161	0,029601972484872723	0,7933772655533161
1	0	0	1	0	0	1	102569,17	-0,200000003	1,81669295	-0,00055482694215658637	-0,1997337513773248	0,000362854887	-0,8238923997488489	0,03074053316974233	0,8238923997488489
1	0	0	1	0	0	1	103119,18	-0,200000003	1,79029536	-0,00055480394487331315	-0,19972547296771808	0,000357567595	-0,85440672842726822	0,031879063799685408	0,85440672842726822
1	0	0	1	0	0	1	103669,19	-0,200000003	1,70790303	-0,00055481039849337606	-0,19972779641800867	0,000341115694	-0,88492108220563264	0,033017595366141178	0,88492108220563264
1	0	0	1	0	0	1	104219,21	-0,200000003	1,59837055	-0,0005548066952402393	-0,19972646263150416	0,000319236889	-0,91543540501235533	0,034156125777003354	0,91543540501235533
1	1	0	0	0	0	2	104750,28	0,200000003	2,21282697	0,00055612169544564358	0,20019985335106714	0,000443007622	-0,91601489336512358	0,034177747266575514	0,014459202648643818
1	1	0	0	0	0	2	105300,29	0,200000003	2,17513537	0,00055612660674585235	0,20020162212795171	0,000435465627	-0,88542791358650176	0,033036505926403443	0,045046182427265594
1	1	0	0	0	0	2	105850,30	0,200000003	2,17395449	0,00055611715300381184	0,20019821810432886	0,000435221824	-0,85484131115593984	0,031895278665594835	0,07563278485782697
1	1	0	0	0	0	2	106400,31	0,200000003	2,17873502	0,00055611767095906874	0,20019840530798774	0,000436179282	-0,82425480761893555	0,030754055094637824	0,10621928839483118
1	1	0	0	0	0	2	106950,32	0,200000003	2,18597245	0,00055611993419710138	0,20019921960078515	0,000437629991	-0,79366831032278822	0,029612831756535584	0,13680578569097818
1	1	0	0	0	0	2	107500,33	0,200000003	2,19861889	0,00055611518333355584	0,2001975091116295	0,000440158037	-0,76308162783635136	0,02847160150873464	0,16739246817741552
1	1	0	0	0	0	2	108050,34	0,200000003	2,21503639	0,00055613260630104275	0,20020378192513926	0,000443458674	-0,73249482852322752	0,027330366901972934	0,19797926749053936
1	1	0	0	0	0	2	108600,35	0,200000003	2,21932173	0,00055613843728436365	0,20020588029388205	0,000444321253	-0,70190766683491136	0,026189118774505584	0,22856642917885565
1	1	0	0	0	0	2	109150,37	0,200000003	2,23101568	0,00055613214414649542	0,20020361555249866	0,000446657417	-0,67132050291716454	0,025047870563855184	0,25915359309660256
1	1	0	0	0	0	2	109700,38	0,200000003	2,25238514	0,00055613241210497088	0,20020371141084461	0,000450935855	-0,6407333415935319	0,023906622449994666	0,28974075442023514
1	1	0	0	0	0	2	110250,39	0,200000003	2,25792766	0,00055612181409945088	0,20019989630797459	0,000452036882	-0,61014599026993843	0,02276536724698015	0,32032810574382906
1	1	0	0	0	0	2	110800,40	0,200000003	2,27607822	0,00055612596467634042	0,20020139098720381	0,000455674017	-0,57955912670277901	0,021624130242813987	0,35091496931098861
1	1	0	0	0	0	2	111350,41	0,200000003	2,27975416	0,00055613201324144992	0,20020356768414253	0,000456414913	-0,54897204519854515	0,020482885107122557	0,38150205081522259
1	1	0	0	0	0	2	111900,42	0,200000003	2,28563929	0,00055612915641980032	0,20020253999447382	0,000457590795	-0,5183847482501385	0,019341631932919373	0,41208934776362906
1	1	0	0	0	0	2	112450,43	0,200000003	2,30302811	0,00055613894342548307	0,20020606249875302	0,000461080199	-0,4877973996135591	0,01820037683016097	0,44267669640020819
1	1	0	0	0	0	2	113000,44	0,200000003	2,31834102	0,00055613897781156832	0,20020607527138045	0,000464145967	-0,45720993915131661	0,01705911755503672	0,47326415686245069
1	1	0	0	0	0	2	113550,45	0,200000003	2,31253195	0,00055612750830915238	0,20020194663742243	0,000462973403	-0,42662283624779904	0,015917871620909245	0,50385125976596832
1	1	0	0	0	0	2	114100,46	0,200000003	2,34254813	0,00055613243015276064	0,2002037177692479	0,000468986836	-0,39603594945317318	0,014776633750095078	0,5344381465605943
1	1	0	0	0	0	2	114650,47	0,200000003	2,31455088	0,00055612566350566022	0,20020128257023206	0,000463376055	-0,3654489980096368	0,013635393467143139	0,5650250980041305
1	1	0	0	0	0	2	115200,48	0,200000003	2,30017114	0,00055613267785890234	0,20020380693936576	0,000460503012	-0,33486203871979034	0,012494152891434824	0,59561205729397683
1	1	0	0	0	0	2	115750,50	0,200000003	2,31376982	0,00055612712697353632	0,20020180921248509	0,000463220902	-0,30427514740802733	0,011352914852080197	0,62619894860573965
1	1	0	0	0	0	2	116300,51	0,200000003	2,31597924	0,00055611651687075686	0,20019798963931597	0,000463654374	-0,27368858333961805	0,010211689022615082	0,65678551267414886
1	1	0	0	0	0	2	116850,52	0,200000003	2,33340621	0,00055612751426713331	0,20020194808306976	0,00046715248	-0,2431015724059425	0,0090704465200060634	0,68737252360782464
1	1	0	0	0	0	2	117400,53	0,200000003	2,35873723	0,00055612413010249536	0,20020073056066259	0,000472220912	-0,21251453568476182	0,0079292030552305613	0,71795956032900557
1	1	0	0	0	0	2	117950,54	0,200000003	2,39416242	0,00055612794731557376	0,20020210397771834	0,000479316339	-0,18192732322349565	0,0067879530333561805	0,74854677279027187
1	1	0	0	0	0	2	118500,55	0,200000003	2,42492127	0,00055613511482212275	0,20020468493963139	0,000485480588	-0,1513398782176416	0,0056466943349305683	0,77913421779612595
1	1	0	0	0	0	2	119050,56	0,200000003	2,43244457	0,00055612787698788768	0,20020207904218096	0,000486980454	-0,12075271902278976	0,0045054463004977248	0,80972137699097779
1	1	0	0	0	0	2	119600,57	0,200000003	2,48424911	0,00055613579050285952	0,20020492746904272	0,000497358909	-0,090165297559056819	0,0033641884804603034	0,84030879845471078
1	1	0	0	0	0	2	120150,58	0,200000003	2,64172006	0,00055613436128613024	0,20020441370932506	0,000528884004	-0,059577792291132083	0,0022229275335758106	0,87089630372263514
1	1	0	0	0	0	2	120443,64	0,200000003	3,50045824	0,00016956244339131645	0,20020496542139203	0,00070080912	-0,043280331374251162	0,0016148473545977338	0,88719376463951629