File: Experimentelles/Rohdaten/Batteriemessungen/AlteZelle/Studenten_Batterietests/S vs Li GCPL 200µm/ECLab-Export/S vs Li GCPL 200µm_02_GCPL_C05.mpt
EC-Lab ASCII FILE
Nb header lines : 83

Galvanostatic Cycling with Potential Limitation

Run on channel : 5 (SN 5436)
Grouped channel(s) : 5
User :
CE vs. WE compliance from -10 V to 10 V
Electrode connection : standard
Ewe ctrl range : min = 0,00 V, max = 5,00 V
Acquisition started on : 01.23.2015 15:07:20
Saved on :
	File : S vs Li GCPL 200µm_02_GCPL_C05.mpr
	Directory : C:\Hupfer\Studenten Batterietests\S vs Li GCPL 200µm\
	Host : 192.168.0.2
Device : VMP3 (SN 0324)
Address : 192.168.0.1
EC-Lab for windows v10.33 (software)
Internet server v10.33 (firmware)
Command interpretor v10.32 (firmware)
Electrode material : S vs Li
Initial state : charged
Electrolyte : LP30
Comments : 200µm
Mass of active material : 0,001 mg
 at x = 0,000
Molecular weight of active material (at x = 0) : 0,001 g/mol
Atomic weight of intercalated ion : 0,001 g/mol
Acquisition started at : xo = 0,000
Number of e- transfered per intercalated ion : 1
for DX = 1, DQ = 26,801 mA.h
Battery capacity : 0,000 A.h
Reference electrode : Li+/Li (-3,020 V)
Electrode surface area : 0,001 cm²
Characteristic mass : 0,001 g
Create one data file per loop
Ns                  0                   1                   2
Set I/C             I                   I                   I
Is                  0,000               -200,000            200,000
unit Is             mA                  µA                  µA
vs.                 <None>              <None>              <None>
N                   1                   1                   1
I sign              > 0                 > 0                 > 0
t1 (h:m:s)          0:00:0,0000         10:00:0,0000        10:00:0,0000
I Range             1 mA                1 mA                1 mA
Bandwidth           5                   5                   5
dE1 (mV)            0,00                0,00                0,00
dt1 (s)             0,0000              10,0000             10,0000
EM (V)              0,000               1,500               3,500
tM (h:m:s)          0:00:0,0000         0:00:0,0000         0:00:0,0000
Im                  0,000               0,000               0,000
unit Im             mA                  mA                  mA
E range min (V)     0,000               0,000               0,000
E range max (V)     5,000               5,000               5,000
dq                  0,000               1,000               1,000
unit dq             mA.h                mA.h                mA.h
dtq (s)             0,0000              120,0000            120,0000
dQM                 0,000               0,000               0,000
unit dQM            mA.h                mA.h                mA.h
dxM                 0,000               0,000               0,000
tR (h:m:s)          0:00:0,0000         0:00:0,0000         0:00:0,0000
dER/dt (mV/h)       0,0                 0,1                 0,1
dER (mV)            0,00                5,00                5,00
dtR (s)             1,0000              120,0000            120,0000
EL (V)              pass                4,200               4,200
goto Ns'            0                   0                   0
nc cycles           0                   0                   0

Number of loops : 11
Loop 0 from point number 0 to 4510
Loop 1 from point number 4511 to 8418
Loop 2 from point number 8419 to 11694
Loop 3 from point number 11695 to 12469
Loop 4 from point number 12470 to 12911
Loop 5 from point number 12912 to 13130
Loop 6 from point number 13131 to 13323
Loop 7 from point number 13324 to 13463
Loop 8 from point number 13464 to 13541
Loop 9 from point number 13542 to 13670
Loop 10 from point number 13671 to 13679

mode	ox/red	error	control changes	Ns changes	counter inc.	Ns	time/s	control/V/mA	Ewe/V	dq/mA.h	<I>/mA	P/W	(Q-Qo)/mA.h	x	Capacity/mA.h
1	0	0	1	1	0	1	3600,0009	-0,200000003	2,17947769	0	0	0	0	0	0
1	0	0	1	0	0	1	5920,0009	-0,200000003	2,13725328	-0,00055480373738292186	-0,1997293478760137	0,000426872197	-0,12871302508070443	0,0048024560222638451	0,12871302508070443
1	0	0	1	0	0	1	8240,0008	-0,200000003	2,06508851	-0,00055480559906694624	-0,19973001808227062	0,000412460155	-0,25742749422168106	0,0096049659243580045	0,25742749422168106
1	0	0	1	0	0	1	10560,0008	-0,200000003	1,90986502	-0,00055477760232985018	-0,19971993925679402	0,00038143812	-0,3861396022435719	0,014407387729924518	0,3861396022435719
1	0	0	1	0	0	1	12880,0008	-0,200000003	1,93529117	-0,00055478447218901574	-0,19972241240612355	0,000386521016	-0,51485027151767936	0,019209755853876816	0,51485027151767936
1	0	0	1	0	0	1	15200,0008	-0,200000003	1,95367038	-0,00055478144308427974	-0,19972132192840538	0,000390189642	-0,64356132588053555	0,024012138346008086	0,64356132588053555
1	0	0	1	0	0	1	17520,0007	-0,200000003	1,9154073	-0,00055479322220550643	-0,19972556241209834	0,000382555794	-0,77227248083097178	0,028814524591197203	0,77227248083097178
1	0	0	1	0	0	1	19840,0007	-0,200000003	1,88283896	-0,0005547914724093344	-0,19972493248546877	0,000376049895	-0,90098269676034355	0,033616875800247885	0,90098269676034355
1	0	0	1	0	0	1	22160,0007	-0,200000003	1,83834791	-0,00055478574925826656	-0,19972287215105942	0,00036716013	-1,0296934327720821	0,038419246414270925	1,0296934327720821
1	1	0	0	0	0	2	24460,2128	0,200000003	2,06777406	0,00055610224454601606	0,20019681046038733	0,000413961767	-1,0684346416477574	0,039864733005531693	0,044488959177562765
1	1	0	0	0	0	2	26780,2128	0,200000003	2,06007957	0,00055611035559988685	0,20019973043981616	0,000412427384	-0,93941604015169088	0,035050875516358829	0,17350756067362838
1	1	0	0	0	0	2	29100,2128	0,200000003	2,07352591	0,00055610783819771469	0,2001988241750232	0,000415117451	-0,81039772924425139	0,030237028869438336	0,30252587158106797
1	1	0	0	0	0	2	31420,2128	0,200000003	2,08331537	0,00055610799723201325	0,20019888142737136	0,000417077419	-0,68138028846784614	0,025423214688276637	0,43154331235747322
1	1	0	0	0	0	2	33740,2128	0,200000003	2,09693313	0,00055612555769085888	0,20020520039579792	0,000419816904	-0,55236143756279379	0,020609347893319174	0,56056216326252538
1	1	0	0	0	0	2	36060,2128	0,200000003	2,1213119	0,0005561153467728032	0,20020152446530477	0,000424689875	-0,42334295379776614	0,015795494796849664	0,68958064702755366
1	1	0	0	0	0	2	38380,2128	0,200000003	2,15511823	0,00055611196155846118	0,20020030578814394	0,000431455323	-0,29432463955660262	0,010981648025543446	0,81859896126871718
1	1	0	0	0	0	2	40700,2128	0,200000003	2,1661458	0,00055611474845972326	0,20020130907259635	0,000433665235	-0,1653071913606465	0,006167833567548329	0,94761640946467379
1	1	0	0	0	0	2	43020,2128	0,200000003	2,18448687	0,00055611019797954285	0,2001996708997345	0,00043733354	-0,036289073865963264	0,0013539941371178206	1,0766345269593578
1	1	0	0	0	0	2	45340,2128	0,200000003	2,21320796	0,00055610410881208038	0,2001974787994521	0,000443078665	0,092728739458945165	-0,0034598339443294285	1,2056523402842666
1	1	0	0	0	0	2	47660,2128	0,200000003	2,29699063	0,00055611338582800486	0,20020081852517869	0,00045985941	0,22174722549856288	-0,0082736871256669555	1,334670826323884
1	0	0	1	0	0	1	49960,8450	-0,200000003	2,10577059	-0,00055478333680993984	-0,19972200087956714	0,000420568715	0,20638201619085616	-0,0077003905076527885	0,071565386251120064
1	0	0	1	0	0	1	52280,8450	-0,200000003	2,01671243	-0,00055478808306902643	-0,1997237095328351	0,000402785285	0,077670251494064333	-0,0028979815120073261	0,200277150947912
1	0	0	1	0	0	1	54600,8450	-0,200000003	1,88941002	-0,00055479683932579219	-0,19972686178526493	0,000377365941	-0,051041758545962253	0,0019044366377240925	0,32898916098793882
1	0	0	1	0	0	1	56920,8450	-0,200000003	1,88626742	-0,00055479741653220518	-0,19972706957957322	0,000376738666	-0,1797555213035079	0,0067069201837027008	0,45770292374548435
1	0	0	1	0	0	1	59240,8450	-0,200000003	1,86324096	-0,00055479688697887789	-0,19972687894037574	0,0003721393	-0,3084684733604455	0,011509373481351626	0,58641587580242214
1	0	0	1	0	0	1	61560,8450	-0,200000003	1,83457708	-0,00055479829377018746	-0,19972738538524624	0,000366415275	-0,43718252859421568	0,016311867940011411	0,71512993103619149
1	0	0	1	0	0	1	63880,8450	-0,200000003	1,7865814	-0,00055478719788458618	-0,19972339086643722	0,0003568221	-0,56589499088331898	0,021114302963763933	0,84384239332529485
1	0	0	1	0	0	1	66200,8581	-0,200000003	1,67211592	-0,00055479834926045606	-0,19972345888218006	0,000333960779	-0,69460522454981043	0,025916654834610397	0,97255262699178637
1	1	0	0	0	0	2	68504,2755	0,200000003	2,08763885	0,00055612515064411693	0,20020109753120854	0,000417947595	-0,65575597676340851	0,024467137166330563	0,083419372596080909
1	1	0	0	0	0	2	70824,3214	0,200000003	2,11660743	0,00055612615084316998	0,20020145726130954	0,000423747901	-0,52673515211932896	0,019653196728516278	0,21244019724016134
1	1	0	0	0	0	2	73144,3672	0,200000003	2,13971019	0,0005561316946662135	0,2002034529972849	0,00042837736	-0,39771417994356966	0,014839250786096662	0,3414611694159207
1	1	0	0	0	0	2	75464,4131	0,200000003	2,15568948	0,00055612658818562822	0,20020161470031734	0,000431572524	-0,2686924682169159	0,010025277250038838	0,47048288114257446
1	1	0	0	0	0	2	77784,4589	0,200000003	2,1650219	0,00055613679266555443	0,2002052882428128	0,000433448819	-0,13967042197157418	0,0052112912326390016	0,59950492738791642
1	1	0	0	0	0	2	80104,5048	0,200000003	2,2533946	0,00055612446217156122	0,20020084969763981	0,00045113152	-0,010648583221606659	0,00039731295717055616	0,72852676613788416
1	1	0	0	0	0	2	82424,5506	0,200000003	2,2201786	0,00055613146372222246	0,20020337057896403	0,000444487232	0,11837421409785776	-0,0044167010838146291	0,85754956345734938
1	1	0	0	0	0	2	84744,5965	0,200000003	2,23829126	0,00055613264550599782	0,20020379604068349	0,000448114413	0,24739652868425869	-0,0092306971133801728	0,98657187804375053
1	1	0	0	0	0	2	87064,6423	0,200000003	2,36325097	0,0005561308303748567	0,20020314260871622	0,000473130262	0,37641866799108205	-0,014044686603029013	1,115594017350576
1	0	0	1	0	0	1	89368,9116	-0,200000003	2,08396316	-0,00055480327719449997	-0,19972523216168371	0,00041622002	0,32126002918980774	-0,011986643627774856	0,091539358846677645
1	0	0	1	0	0	1	91688,9574	-0,200000003	1,98835301	-0,00055481039397418496	-0,19972779415173184	0,000397129363	0,19254593047320122	-0,0071841475467119834	0,22025345756328448
1	0	0	1	0	0	1	94009,0033	-0,200000003	1,85640359	-0,00055481675068537395	-0,19973008252252954	0,000370779628	0,063829509688291418	-0,0023815648261586637	0,34896987834819418
1	0	0	1	0	0	1	96329,0491	-0,200000003	1,87103069	-0,00055481398427238067	-0,19972908688464749	0,000373699237	-0,064888307873536192	0,0024210700100194467	0,47768769591002195
1	0	0	1	0	0	1	98649,0950	-0,200000003	1,87466848	-0,00055480577522019546	-0,1997261320632543	0,000374420284	-0,19360523489904323	0,0072236716190900992	0,60640462293552883
1	0	0	1	0	0	1	100969,1408	-0,200000003	1,86457419	-0,0005548133973090185	-0,19972887607290096	0,000372409297	-0,3223221178340007	0,012026271583083064	0,73512150587048691
1	0	0	1	0	0	1	103289,1867	-0,200000003	1,76256454	-0,00055481177940219642	-0,19972829363766419	0,000352033996	-0,45103912906969677	0,016828876334149091	0,8638385171061824
1	1	0	0	0	0	2	105590,2949	0,200000003	2,17599249	0,00055611829430527155	0,20019862896240298	0,000435630704	-0,45650090697817165	0,017032662611352784	0,061173800999110784
1	1	0	0	0	0	2	107910,3408	0,200000003	2,2141602	0,00055612923390997779	0,20020256714458851	0,000443280558	-0,32748123637885574	0,012218765232500262	0,19019347159842659
1	1	0	0	0	0	2	110230,3866	0,200000003	2,25659442	0,00055612751413881779	0,20020194805785261	0,000451774598	-0,19845884732710678	0,0074047664245324634	0,31921586065017549
1	1	0	0	0	0	2	112550,4325	0,200000003	2,30594206	0,00055613234746207795	0,20020368840205914	0,000461658114	-0,069436664353692954	0,002590775305624423	0,4482380436235895
1	1	0	0	0	0	2	114870,4783	0,200000003	2,31517935	0,00055612091720269779	0,20019957393260032	0,000463497912	0,059585123114857126	-0,0022232010564653894	0,57725983109213952
1	1	0	0	0	0	2	117190,5242	0,200000003	2,34578586	0,00055612997935215629	0,20020283624193699	0,000469632971	0,18860616558471117	-0,0070371496216521907	0,70628087356199373
1	1	0	0	0	0	2	119510,5700	0,200000003	2,47805929	0,00055613695845339027	0,20020534866873168	0,000496120716	0,31762886687168954	-0,011851160079536205	0,83530357484897203
1	0	0	1	0	0	1	121813,7151	-0,200000003	1,91483617	-0,00055480116906430982	-0,19972447324981539	0,000382439641	0,29351470039070688	-0,010951428106289085	0,076004356271527258
1	1	0	0	0	0	2	124120,6798	0,200000003	2,3012569	0,00055614408345354925	0,20020791347855197	0,000460729847	0,23995958500092506	-0,0089532147454778701	0,037261027400579725
1	1	0	0	0	0	2	126440,7256	0,200000003	2,30605626	0,0005561427644011047	0,20020743876860522	0,000461689604	0,36898322259559168	-0,013767260138260611	0,16628466499524634
1	0	0	1	0	0	1	128744,1615	-0,200000003	1,75205123	-0,00055477655437091994	-0,19971561222833558	0,000349911978	0,4326483826935799	-0,016142692860234688	0,032175150930670163
1	1	0	0	0	0	2	131049,4469	0,200000003	2,51561761	0,00055613944097359987	0,20020624176169709	0,000503642368	0,5136101305029079	-0,019163484525228365	0,10455343141048488
1	1	0	0	0	0	2	133345,0935	0,200000003	2,42023611	0,00055611476859036422	0,20020128536859904	0,000484534394	0,57473100279139469	-0,021443986448198598	0,010566263602255118
1	1	0	0	0	0	2	135634,7710	0,200000003	2,39191484	0,00055612749589979648	0,20020586719927779	0,000478875387	0,65720355518355866	-0,02452114826347625	0,02836258020625263
1	1	0	0	0	0	2	137926,2188	0,200000003	3,21035218	0,00055612826851672589	0,2002061453413289	0,000642732251	0,74937402210209805	-0,027960152308717728	0,055056926264882086
1	1	0	0	0	0	2	140059,6657	0,200000003	3,50003934	0,00019612459496243133	0,20020655344217472	0,00070073083	0,82461501794152243	-0,030767495026081472	0,0024206638612349827