File: Experimentelles/Rohdaten/Batteriemessungen/AlteZelle/150511_LLTO_LTO_Tests/LLTO_Aufladen/ECLab-Export/LLTO_LP30_Li_Aufladen_02_PEIS_C02.mpt
EC-Lab ASCII FILE
Nb header lines : 68

Potentio Electrochemical Impedance Spectroscopy

Run on channel : 2 (SN 6986)
Grouped channel(s) : 2
User :
CE vs. WE compliance from -10 V to 10 V
Electrode connection : standard
Ewe ctrl range : min = -5,00 V, max = 5,00 V
Acquisition started on : 05.11.2015 15:06:01
Saved on :
	File : LLTO_LP30_Li_Aufladen_02_PEIS_C02.mpr
	Directory : C:\Hupfer\150511_LLTO_LTO_Tests\LLTO_Aufladen\
	Host : 192.168.0.2
Device : VMP3 (SN 0324)
Address : 192.168.0.1
EC-Lab for windows v10.33 (software)
Internet server v10.33 (firmware)
Command interpretor v10.32 (firmware)
Electrode material :
Initial state :
Electrolyte :
Comments :
Mass of active material : 0,001 mg
 at x = 0,000
Molecular weight of active material (at x = 0) : 0,001 g/mol
Atomic weight of intercalated ion : 0,001 g/mol
Acquisition started at : xo = 0,000
Number of e- transfered per intercalated ion : 1
for DX = 1, DQ = 26,801 mA.h
Battery capacity : 0,000 A.h
Electrode surface area : 0,001 cm²
Characteristic mass : 0,001 g
Multi Sine          0
E (V)               0,0000
vs.                 Eoc
tE (h:m:s)          0:00:0,0000
record              0
dI                  0,000
unit dI             mA
dt (s)              0,000
fi                  1,000
unit fi             MHz
ff                  1,000
unit ff             Hz
Sel Nd              1
Nd                  6
Nt                  51
Log                 1
Va (mV)             10,0
pw                  0,10
Na                  2
E range min (V)     -5,000
E range max (V)     5,000
I Range             Auto
Bandwidth           5
corr                0
nc cycles           0
goto Ns'            0
nr cycles           0
inc. cycle          0

Number of loops : 1
Loop 0 from point number 0 to 36

freq/Hz	Re(Z)/Ohm	-Im(Z)/Ohm	|Z|/Ohm	Phase(Z)/deg	time/s	<Ewe>/V	<I>/mA	Cs/µF	Cp/µF	cycle number	I Range	|Ewe|/V	|I|/A	Re(Y)/Ohm-1	Im(Y)/Ohm-1	|Y|/Ohm-1	Phase(Y)/deg
1000024,25	17,6018353	-4,13594294	18,0812225	13,2230444	295205,1646	2,62450314	0,00882593449	-0,0384799987	-0,00201339298	1	10	0,000725942373	4,01489633E-005	0,0538396649	-0,0126508279	0,055305995	-13,2230444
681286,5	15,5744905	-2,11369085	15,7172661	7,72867346	295206,3966	2,62492204	0,00140001194	-0,110522032	-0,00199883897	1	10	0,00245830324	0,000156407812	0,0630463362	-0,00855632965	0,0636243001	-7,72867346
464160,125	15,3766212	-1,12557209	15,4177618	4,18659687	295207,6286	2,62510562	0,00106273196	-0,304634452	-0,00162361469	1	10	0,00718535343	0,000466043886	0,0646871775	-0,00473511592	0,0648602545	-4,18659687
316223,094	15,303009	-0,336018533	15,3066978	1,25788009	295207,9426	2,62496924	0,000628550071	-1,49783278	-0,000721816439	1	10	0,0105853472	0,000691550027	0,0653151348	-0,00143416866	0,0653308779	-1,25788009
215441,859	15,3225765	0,360949993	15,326827	-1,34945238	295208,3586	2,62487626	0,00149878964	2,04664731	0,00113509595	1	10	0,0101799443	0,000664191262	0,0652269796	0,00153653522	0,065245077	1,34945238
146777,328	15,4553003	1,07089007	15,4923563	-3,96366072	295208,7746	2,62484431	0,00147456408	1,01254952	0,00483805826	1	10	0,0101475352	0,000655002717	0,0643935725	0,00446179835	0,0645479634	3,96366072
100024,406	15,6865902	1,82285523	15,7921476	-6,62830925	295209,0886	2,62481046	0,000740357849	0,872895002	0,0116301132	1	10	0,0109057743	0,000690582092	0,0628993511	0,00730919931	0,0633226112	6,62830925
68127,4297	16,0412846	2,77154231	16,2789516	-9,80253601	295209,4026	2,62483716	0,00183607615	0,842901051	0,0244324375	1	10	0,0106506255	0,000654257427	0,060532175	0,0104584815	0,0614290163	9,80253601
46411,125	16,6487389	3,88246155	17,095438	-13,1266985	295209,7166	2,62482285	0,00109068828	0,88326472	0,045555912	1	10	0,0103491684	0,00060537603	0,0569666736	0,0132845463	0,0584951378	13,1266985
31628,4121	17,6636353	5,13867998	18,3959255	-16,2206955	295210,0306	2,62483573	0,00152673887	0,979244649	0,0764101446	1	10	0,0102570867	0,000557573861	0,0521959513	0,0151847731	0,0543598644	16,2206955
21545,4082	19,1759739	6,43080282	20,2255573	-18,5392532	295210,3446	2,62483335	0,00132175372	1,14868295	0,116126031	1	10	0,0101646762	0,000502565934	0,0468766354	0,0157204214	0,0494423956	18,5392532
14672,8496	21,1601334	7,46567917	22,43853	-19,4337673	295210,5566	2,62482381	0,00147828623	1,45290196	0,160837084	1	10	0,0104448097	0,000465485471	0,0420271158	0,0148279304	0,0445661992	19,4337673
10015,2705	23,4096775	8,1815691	24,7982063	-19,2642727	295210,8088	2,62486863	0,00330634764	1,94232023	0,211423621	1	10	0,0105041349	0,000423584454	0,0380675457	0,0133044226	0,0403254963	19,2642727
6856,00244	25,6009579	8,61938667	27,0130138	-18,6074619	295211,1592	2,62487698	0,00195719465	2,6932261	0,274207562	1	10	0,0104960911	0,000388556829	0,0350840837	0,0118121859	0,0370191932	18,6074619
4642,42725	27,7186794	9,05695629	29,1608238	-18,094574	295211,6104	2,62488461	0,0022888917	3,78523421	0,36513859	1	10	0,00981456321	0,000336566736	0,0325966477	0,0106508099	0,0342925824	18,094574
3160,05566	29,8590965	9,66582775	31,3846111	-17,9375286	295212,0614	2,62488413	0,00206248043	5,21058321	0,494232118	1	10	0,0101506403	0,000323427317	0,0303139947	0,0098130852	0,0318627506	17,9375286
2152,93286	32,2687874	10,5028572	33,9350052	-18,0290527	295212,5129	2,62488413	0,00215844694	7,03853369	0,674219429	1	10	0,0102974353	0,00030344582	0,0280212052	0,00912035257	0,0294680968	18,0290527
1468,58972	34,9181747	11,4050522	36,7335548	-18,0881901	295213,2089	2,62487674	8,41744768E-005	9,50216103	0,915990651	1	11	0,0105265202	0,000286564144	0,0258776955	0,00845223106	0,0272230655	18,0881901
999,040405	38,1102791	12,1710157	40,006588	-17,7115612	295213,6599	2,62488246	0,000100213983	13,0891142	1,21143711	1	11	0,0104938662	0,000262303452	0,0238110814	0,00760437967	0,0249958839	17,7115612
681,089661	41,6101036	12,6136656	43,4799423	-16,8641281	295214,1104	2,62487626	1,39557851E-005	18,5256958	1,55911887	1	11	0,0104669333	0,000240730165	0,0220100414	0,00667211274	0,0229991097	16,8641281
464,553894	45,2202835	12,5692644	46,934639	-15,5336094	295214,5619	2,62487864	2,2814309E-005	27,2567558	1,95482075	1	11	0,0104418937	0,000222477349	0,0205279849	0,00570588373	0,021306226	15,5336094
316,315765	48,7071991	12,0346727	50,1719513	-13,8787823	295215,0109	2,62487698	7,13981572E-005	41,8085403	2,40553451	1	11	0,0104264542	0,000207814403	0,0193495639	0,00478092954	0,0199314561	13,8787823
215,344498	51,8183937	11,1908512	53,0130272	-12,1866026	295215,4614	2,62487483	1,08602751E-006	66,0424576	2,94295931	1	11	0,0104156751	0,000196473877	0,0184382107	0,00398196932	0,0188632887	12,1866026
146,737289	54,4780273	10,2063055	55,4258423	-10,6111975	295215,9084	2,62487912	3,76406279E-005	106,270088	3,60349226	1	11	0,0104124835	0,000187863334	0,0177335925	0,00332233892	0,0180421248	10,6111975
99,9040375	56,6767311	9,2988615	57,4344902	-9,31741619	295216,3599	2,62487674	7,12655378E-007	171,319702	4,49077559	1	11	0,0104079274	0,000181213894	0,0171814281	0,00281892973	0,0174111407	9,31741619
68,1888962	58,4636002	8,56697464	59,0879478	-8,33651638	295216,8221	2,62487984	4,26753286E-005	272,445068	5,72711802	1	11	0,0104035595	0,000176069065	0,0167450998	0,00245374627	0,0169239249	8,33651638
46,3802681	59,9550629	8,20745659	60,5142288	-7,79496717	295217,2608	2,62487268	-0,000118557175	418,098175	7,69095802	1	11	0,0104069598	0,000171975422	0,0163723435	0,00224126712	0,0165250394	7,79496717
31,5869217	61,1047249	8,2810154	61,6632996	-7,71780109	295217,6907	2,62486959	0,000141802331	608,456116	10,973443	1	11	0,0104029477	0,000168705665	0,0160701983	0,00217786036	0,0162171014	7,71780109
21,5220375	62,1076355	9,01071739	62,7578812	-8,25500393	295218,1116	2,62487245	-0,000220202317	820,686707	16,9184113	1	11	0,0104070827	0,0001658291	0,0157691557	0,00228782487	0,0159342531	8,25500393
14,6851501	62,9979858	10,5941782	63,8825722	-9,54593754	295218,5730	2,62487125	-2,45899832E-006	1022,99731	28,1348267	1	11	0,0104022268	0,000162833559	0,0154369641	0,00259598694	0,015653722	9,54593754
9,9904108	63,9379654	13,455122	65,3383789	-11,8839369	295219,0239	2,62487078	-0,000375374249	1183,99304	50,2097092	1	11	0,0104052546	0,000159251795	0,0149769066	0,00315174414	0,0153049408	11,8839369
6,81718969	65,1880722	17,8314152	67,5828705	-15,2983446	295219,3634	2,62488341	0,00120282278	1309,26917	91,1438293	1	11	0,010407134	0,00015399071	0,0142723303	0,0039040246	0,0147966491	15,2983446
4,63925123	66,8832397	23,5633068	70,9126053	-19,4076214	295219,8483	2,62488151	-0,000389736	1455,91492	160,753937	1	11	0,0104020936	0,000146688923	0,0133005753	0,00468586059	0,0141018648	19,4076214
3,16039586	67,8723755	32,5483208	75,2731857	-25,6201324	295220,9032	2,62487769	-9,5018986E-005	1547,21289	289,285492	1	12	0,0104076313	0,00013826479	0,0119787762	0,00574444421	0,0132849431	25,6201324
2,1522038	70,6814041	45,9465981	84,3027344	-33,0259666	295221,9085	2,62488294	0,000127638399	1609,4718	478,086823	1	12	0,0104089202	0,000123470731	0,00994539075	0,00646502245	0,0118620116	33,0259666
1,46630979	72,9951782	62,6665039	96,2049179	-40,6461563	295223,3700	2,6248827	-0,000115723917	1732,04419	734,911987	1	12	0,010405669	0,000108161505	0,00788677763	0,00677081477	0,0103944791	40,6461563
0,998529792	77,5521927	88,3488617	117,557915	-48,7234993	295225,5026	2,62488341	-9,77124218E-005	1804,08984	1018,95807	1	12	0,0104056112	8,85147674E-005	0,00561164645	0,00639288919	0,00850644521	48,7234993