File: Experimentelles/Ausgewaehlte_Daten/LAGP/CV/LAGP_Korrosion_08_CV_C02.txt
EC-Lab ASCII FILE
Nb header lines : 67

Cyclic Voltammetry

Run on channel : 2 (SN 6986)
Grouped channel(s) : 2
User :
CE vs. WE compliance from -10 V to 10 V
Electrode connection : standard
Ewe ctrl range : min = 0,00 V, max = 5,00 V
Acquisition started on : 08.27.2015 14:25:34
Saved on :
	File : LAGP_Korrosion_08_CV_C02.mpr
	Directory : C:\Gielisch\NeueZelle\LiS-Test\Paul\
	Host : 192.168.0.2
Device : VMP3 (SN 0324)
Address : 192.168.0.1
EC-Lab for windows v10.33 (software)
Internet server v10.33 (firmware)
Command interpretor v10.32 (firmware)
Electrode material :
Initial state :
Electrolyte :
Comments :
Mass of active material : 0,001 mg
 at x = 0,000
Molecular weight of active material (at x = 0) : 0,001 g/mol
Atomic weight of intercalated ion : 0,001 g/mol
Acquisition started at : xo = 0,000
Number of e- transfered per intercalated ion : 1
for DX = 1, DQ = 26,801 mA.h
Battery capacity : 0,000 A.h
Electrode surface area : 0,001 cm²
Characteristic mass : 0,001 g
Ei (V)              0,000
vs.                 Eoc
dE/dt               10,000
dE/dt unit          mV/s
E1 (V)              4,000
vs.                 Ref
Step percent        50
N                   10
E range min (V)     0,000
E range max (V)     5,000
I Range             Auto
Bandwidth           5
E2 (V)              1,200
vs.                 Ref
nc cycles           0
Reverse Scan        1
Ef (V)              0,000
vs.                 Eoc

Modify on : 08.27.2015 17:18
E2 (V)              0,500

Number of loops : 7
Loop 0 from point number 0 to 5601
Loop 1 from point number 5602 to 11203
Loop 2 from point number 11204 to 16804
Loop 3 from point number 16805 to 22406
Loop 4 from point number 22407 to 28007
Loop 5 from point number 28008 to 33608
Loop 6 from point number 33609 to 40608

mode	ox/red	error	control changes	counter inc.	time/s	control/V	Ewe/V	<I>/mA	cycle number	(Q-Qo)/C	P/W
2	1	0	0	0	6929,0153	1,5094049	1,50994015	0,0091616204008460045	1	0	1,38334981E-005
2	1	0	1	0	6967,7181	1,89643407	1,89708662	0,022658441502480224	1	0,000766232202	4,29850261E-005
2	1	0	1	0	7006,4261	2,28351331	2,28415275	0,023568761748417043	1	0,00167978089	5,38346503E-005
2	1	0	1	0	7045,1341	2,67059302	2,67122412	0,026449812032903251	1	0,0026478013	7,06533756E-005
2	1	0	1	0	7083,8421	3,05767226	3,05828595	0,035691498998656032	1	0,00384779926	0,000109154811
2	1	0	1	0	7122,5501	3,44475245	3,44547367	0,031373604179969485	1	0,00521943951	0,00010809693
2	1	0	0	0	7161,2579	3,83183169	3,83253908	0,034678049251885638	1	0,00648256531	0,000132904985
2	0	0	1	0	7199,9165	3,78162146	3,78242135	-0,021681064340992982	1	0,00674020266	8,20069181E-005
2	0	0	0	0	7238,6244	3,3945415	3,39519405	-0,020953314906840435	1	0,00589813804	7,11405737E-005
2	0	0	0	0	7277,3323	3,00746202	3,00809669	-0,021950300060712858	1	0,00505520077	6,60286241E-005
2	0	0	0	0	7316,0403	2,62038279	2,62102127	-0,023147013103072038	1	0,00416719774	6,06688154E-005
2	0	0	0	0	7354,7483	2,23330331	2,23399043	-0,029079037395098982	1	0,0031730975	6,49622889E-005
2	0	0	0	0	7393,4563	1,84622359	1,84675026	-0,038077011540600947	1	0,00187350891	7,03187325E-005
2	0	0	1	0	7432,1642	1,45914447	1,45974195	-0,054057619704535206	1	0,000118450058	7,89101759E-005
2	1	0	0	1	7470,8127	1,32741725	1,32822299	0,0042833601587012224	1	-0,00266357488	5,68925725E-006
2	1	0	0	0	7509,4115	1,71279633	1,71334445	0,028657523928106723	2	0,000550516183	4,91002102E-005
2	1	0	0	0	7548,1195	2,09987569	2,10051775	0,030714778790112365	2	0,00173682685	6,45169348E-005
2	1	0	0	0	7586,8275	2,4869554	2,48770905	0,032380391546111219	2	0,00297237816	8,05529926E-005
2	1	0	0	0	7625,5355	2,87403464	2,87474418	0,038251043478440992	2	0,00433259457	0,000109961962
2	1	0	0	0	7664,2435	3,26111412	3,2616992	0,041087461040458906	2	0,00597752305	0,000134014932
2	1	0	0	0	7702,9515	3,64819431	3,64886022	0,034847282796686086	2	0,00739676133	0,00012715286
2	0	0	0	0	7741,5699	3,9656589	3,96635008	-0,011622328768242819	2	0,00875925552	4,60982228E-005
2	0	0	0	0	7780,2779	3,57857919	3,5792079	-0,021081724984536838	2	0,00797130261	7,54558787E-005
2	0	0	1	0	7818,9858	3,19149852	3,19201565	-0,021030884516870768	2	0,00714687211	6,71309099E-005
2	0	0	1	0	7857,6937	2,80442047	2,80512834	-0,022742632944654326	2	0,00627971813	6,37960038E-005
2	0	0	1	0	7896,4017	2,41734099	2,41799045	-0,025133750875721894	2	0,00534877786	6,07731708E-005
2	0	0	1	0	7935,1097	2,03026152	2,03101754	-0,033177696957459981	2	0,00419932045	6,73844843E-005
2	0	0	1	0	7973,8177	1,64318204	1,64358616	-0,044907698390522445	2	0,00269190595	7,38096714E-005
2	0	0	0	0	8012,5656	1,25570166	1,25630021	-0,1053792692971165	2	0,000264946546	0,000132387999
2	1	0	1	0	8051,1051	1,52925873	1,52979839	0,02511848942204209	3	4,73628606E-005	3,84262239E-005
2	1	0	1	0	8089,8131	1,91633821	1,91696274	0,03090988026276503	3	0,00118088676	5,92530887E-005
2	1	0	1	0	8128,5211	2,30341768	2,30409169	0,031757899120243181	3	0,00241473829	7,31731125E-005
2	1	0	1	0	8167,2291	2,69049692	2,69120288	0,034748513885359763	3	0,00370768784	9,35153003E-005
2	1	0	1	0	8205,9371	3,07757664	3,0782156	0,043478903998793395	3	0,00522757228	0,000133837442
2	1	0	0	0	8244,6448	3,46465588	3,46529913	0,035391591097162253	3	0,00680096401	0,00012264245
2	1	0	0	0	8283,3528	3,85173535	3,85246444	0,03894134335375088	3	0,00820177048	0,000150020147
2	0	0	1	0	8322,0214	3,76161671	3,76226878	-0,021266551865092381	3	0,00842733402	8,00104826E-005
2	0	0	1	0	8360,7294	3,37453723	3,37518024	-0,020776303047400467	3	0,00759444386	7,01237659E-005
2	0	0	0	0	8399,4373	2,98745799	2,98810911	-0,021957593366754429	3	0,00676057348	6,56116827E-005
2	0	0	0	0	8438,1452	2,60037851	2,60096717	-0,023569175085328854	3	0,00586417969	6,13026496E-005
2	0	0	0	0	8476,8532	2,21329904	2,21391392	-0,029515228091946176	3	0,00484965742	6,53441748E-005
2	0	0	0	0	8515,5612	1,82621968	1,8268652	-0,038367084158515418	3	0,00352989673	7,00914898E-005
2	0	0	0	0	8554,2692	1,43914008	1,4397409	-0,058213380398228877	3	0,0017264107	8,3812185E-005
2	1	0	0	1	8592,9576	1,34782135	1,34825492	0,010429593595391555	3	-0,000742706587	1,40617512E-005
2	1	0	0	0	8631,6126	1,7335006	1,73416865	0,0294492967012856	4	0,000620787789	5,10700484E-005
2	1	0	0	0	8670,3206	2,1205802	2,12112379	0,031580533759013158	4	0,00183003326	6,69862202E-005
2	1	0	0	0	8709,0286	2,50765967	2,50837731	0,033023800558617517	4	0,00308645493	8,28361517E-005
2	1	0	0	0	8747,7366	2,89473939	2,89544392	0,038971229236469453	4	0,00447104685	0,000112839007
2	1	0	0	0	8786,4446	3,28181863	3,28241229	0,040086564349217702	4	0,00612056907	0,000131580629
2	1	0	0	0	8825,1526	3,66889834	3,66970634	0,035174212959352442	4	0,00752858259	0,000129079039
2	0	0	0	0	8863,8010	3,94465494	3,94521427	-0,014390117475866419	4	0,00879137125	5,67720963E-005
2	0	0	0	0	8902,5090	3,55757523	3,55829477	-0,020965332242970675	4	0,00798915513	7,460083E-005
2	0	0	0	0	8941,2170	3,17049527	3,17126822	-0,020844277518335731	4	0,00716759171	6,61027952E-005
2	0	0	1	0	8979,9249	2,78341627	2,78414798	-0,022882521561613606	4	0,00630163494	6,37083285E-005
2	0	0	1	0	9018,6328	2,39633679	2,39710879	-0,025455576566013382	4	0,00536181685	6,10197858E-005
2	0	0	1	0	9057,3408	2,00925732	2,00999784	-0,033370226095602918	4	0,0041957316	6,70740847E-005
2	0	0	1	0	9096,0488	1,62217772	1,62282872	-0,045368927694787955	4	0,00267674285	7,36259972E-005
2	0	0	1	0	9134,7968	1,23469818	1,23517478	-0,11603120334998352	4	0,000143537807	0,000143318815
2	1	0	1	0	9173,3083	1,55006266	1,55069304	0,025915117219286022	5	9,99527401E-005	4,01863908E-005
2	1	0	1	0	9212,0162	1,93714237	1,93784499	0,031036263883665702	5	0,00124909042	6,01434695E-005
2	1	0	1	0	9250,7242	2,32422185	2,32491136	0,031994223650717293	5	0,00248613651	7,43837372E-005
2	1	0	1	0	9289,4322	2,71130133	2,71204042	0,035111497341724141	5	0,00378705026	9,5223797E-005
2	1	0	1	0	9328,1402	3,09838104	3,09898663	0,04363103970643817	5	0,00532443961	0,000135212002
2	1	0	0	0	9366,8481	3,48545933	3,48616362	0,035093705598477018	5	0,00687697437	0,000122342404
2	1	0	0	0	9405,5560	3,87254	3,87325287	0,03959538327978457	5	0,00828142185	0,000153362926
2	0	0	1	0	9444,2446	3,74061275	3,74124956	-0,021218063406801462	5	0,00837572478	7,93820727E-005
2	0	0	1	0	9482,9526	3,35353351	3,35425806	-0,020499832311610678	5	0,00754432706	6,87617285E-005
2	0	0	1	0	9521,6606	2,96645355	2,96707153	-0,021850167116132941	5	0,00671144947	6,48310088E-005
2	0	0	0	0	9560,3685	2,57937479	2,5800271	-0,023839607110218541	5	0,0058116084	6,15068348E-005
2	0	0	0	0	9599,0764	2,19229484	2,19281387	-0,030192780032477882	5	0,00478231581	6,6207147E-005
2	0	0	0	0	9637,7844	1,80521524	1,80568945	-0,038748160625497466	5	0,00344701624	6,99671436E-005
2	0	0	0	0	9676,4924	1,41813588	1,41869867	-0,06034532762822464	5	0,00161107769	8,56118349E-005
2	1	0	0	1	9715,1808	1,36882567	1,36968887	0,014198597649940219	5	-0,000650886097	1,94476615E-005
2	1	0	0	0	9753,8161	1,75520527	1,75576365	0,029856391279966374	6	0,000687462802	5,2420768E-005
2	1	0	0	0	9792,5240	2,14228439	2,14296722	0,031647269445885363	6	0,00190527458	6,78190627E-005
2	1	0	0	0	9831,2320	2,52936435	2,53000712	0,033187444386486355	6	0,0031672616	8,39644708E-005
2	1	0	0	0	9869,9400	2,91644335	2,91689992	0,039252274441187898	6	0,00456622476	0,000114494957
2	1	0	0	0	9908,6480	3,30352283	3,30413127	0,038848563412169798	6	0,00621378468	0,000128360756
2	1	0	0	0	9947,3560	3,69060278	3,69140315	0,035096688996190003	6	0,00760890543	0,000129556021
2	0	0	0	0	9986,0344	3,92265034	3,92327285	-0,016532698385331168	6	0,00875094905	6,48622881E-005
2	0	0	1	0	10024,7422	3,53557038	3,53630447	-0,021071832633525549	6	0,00793647207	7,45164143E-005
2	0	0	1	0	10063,4502	3,14849091	3,14913535	-0,020897082863720454	6	0,00711572962	6,58077406E-005
2	0	0	1	0	10102,1582	2,76141167	2,76202917	-0,02282982992430871	6	0,00624788273	6,30566574E-005
2	0	0	1	0	10140,8662	2,37433243	2,37501621	-0,02591972615725047	6	0,00529972324	6,15597673E-005
2	0	0	1	0	10179,5742	1,98725271	1,98789155	-0,033865587121841626	6	0,00411430746	6,7321118E-005
2	0	0	0	0	10218,2820	1,60017312	1,60061145	-0,046236892265302477	6	0,00257591647	7,4007301E-005
2	0	0	0	0	10257,0300	1,21269369	1,21336246	-0,13551892819641954	6	-0,000108940592	0,000164433586
2	1	0	0	0	10295,6178	1,57276738	1,57339156	0,026890594257835158	7	0,000157412112	4,23094352E-005
2	1	0	1	0	10334,3257	1,95984674	1,96052444	0,031253333618287584	7	0,00132281671	6,12729273E-005
2	1	0	1	0	10373,0336	2,34692669	2,34751129	0,032053343300638694	7	0,00256592245	7,5245589E-005
2	1	0	1	0	10411,7416	2,73400617	2,73449779	0,035573918941534163	7	0,00387575757	9,7276803E-005
2	1	0	1	0	10450,4496	3,12108541	3,12168908	0,04384481667592688	7	0,00543194124	0,000136869887
2	1	0	1	0	10489,1576	3,50816512	3,50891566	0,034852090554691238	7	0,00696293311	0,000122293044
2	1	0	1	0	10527,8656	3,89524508	3,8958981	0,040414194691149926	7	0,0083730258	0,000157449584
2	0	0	1	0	10566,4840	3,71860838	3,71929884	-0,021153880337132438	7	0,00832224358	7,86776E-005
2	0	0	0	0	10605,1918	3,3315289	3,33218765	-0,020472290408280192	7	0,00749209523	6,82175159E-005
2	0	0	0	0	10643,8998	2,94444919	2,94508576	-0,021761970182760022	7	0,00665890239	6,40908693E-005
2	0	0	0	0	10682,6078	2,55736971	2,55809021	-0,023946377472451875	7	0,00575473579	6,12569929E-005
2	0	0	0	0	10721,3158	2,17029023	2,17076993	-0,030822029802948346	7	0,00470947055	6,6907538E-005
2	0	0	0	0	10760,0238	1,78321075	1,7837882	-0,03930669297740137	7	0,00335727888	7,01148165E-005
2	0	0	1	0	10798,7316	1,39613116	1,39673948	-0,062717040440205542	7	0,00148280978	8,75993646E-005
2	0	0	1	0	10837,4796	1,00865173	1,00928581	-0,91929426720296806	7	-0,00898886845	0,000927830639
2	0	0	1	0	10876,2276	0,62117219	0,621520519	-2,2477724673571418	7	-0,0778489411	0,00139703671
2	1	0	0	1	10914,9262	0,765801907	0,76631546	0,81882408399272678	7	-0,112020835	0,000627477537
2	1	0	0	1	10953,6742	1,15328145	1,15408528	1,0700256872784237	7	-0,0681687519	0,0012349009
2	1	0	1	1	10989,6314	1,5129056	1,51338494	0,36244200418392755	7	-0,0435038134	0,000548514246