File: Experimentelles/Ausgewaehlte_Daten/LAGP/CV/LAGP_Korrosion_02_CV_C02.txt
EC-Lab ASCII FILE
Nb header lines : 64

Cyclic Voltammetry

Run on channel : 2 (SN 6986)
Grouped channel(s) : 2
User :
CE vs. WE compliance from -10 V to 10 V
Electrode connection : standard
Ewe ctrl range : min = 0,00 V, max = 5,00 V
Acquisition started on : 08.27.2015 14:25:34
Saved on :
	File : LAGP_Korrosion_02_CV_C02.mpr
	Directory : C:\Gielisch\NeueZelle\LiS-Test\Paul\
	Host : 192.168.0.2
Device : VMP3 (SN 0324)
Address : 192.168.0.1
EC-Lab for windows v10.33 (software)
Internet server v10.33 (firmware)
Command interpretor v10.32 (firmware)
Electrode material :
Initial state :
Electrolyte :
Comments :
Mass of active material : 0,001 mg
 at x = 0,000
Molecular weight of active material (at x = 0) : 0,001 g/mol
Atomic weight of intercalated ion : 0,001 g/mol
Acquisition started at : xo = 0,000
Number of e- transfered per intercalated ion : 1
for DX = 1, DQ = 26,801 mA.h
Battery capacity : 0,000 A.h
Electrode surface area : 0,001 cm²
Characteristic mass : 0,001 g
Ei (V)              0,000
vs.                 Eoc
dE/dt               10,000
dE/dt unit          mV/s
E1 (V)              4,000
vs.                 Ref
Step percent        50
N                   10
E range min (V)     0,000
E range max (V)     5,000
I Range             Auto
Bandwidth           5
E2 (V)              1,200
vs.                 Ref
nc cycles           0
Reverse Scan        1
Ef (V)              0,000
vs.                 Eoc

Number of loops : 7
Loop 0 from point number 0 to 5600
Loop 1 from point number 5601 to 11202
Loop 2 from point number 11203 to 16804
Loop 3 from point number 16805 to 22406
Loop 4 from point number 22407 to 28007
Loop 5 from point number 28008 to 33609
Loop 6 from point number 33610 to 39210

mode	ox/red	error	control changes	counter inc.	time/s	control/V	Ewe/V	<I>/mA	cycle number	(Q-Qo)/C	P/W
2	1	1	0	0	0,0508	2,99561048	2,99594879	-0,0041857114993035795	1	0	1,25401775E-005
2	1	0	0	0	37,3534	3,36863637	3,36885262	0,021122896759253411	1	0,000708130538	7,11599278E-005
2	1	0	0	0	74,6610	3,74171233	3,74191308	0,033064902354790758	1	0,0016983723	0,000123725986
2	0	0	1	0	111,9292	3,88564205	3,88575101	-0,019334260648099149	1	0,00255980273	7,51281259E-005
2	0	0	1	0	149,2368	3,51256561	3,51287341	-0,020725205788578614	1	0,00175236084	7,28050218E-005
2	0	0	0	0	186,5446	3,1394887	3,13975906	-0,020696619081190109	1	0,000970392313	6,49823996E-005
2	0	0	0	0	223,8522	2,76641226	2,76661444	-0,02372369300617183	1	0,000149528219	6,56343109E-005
2	0	0	0	0	261,1598	2,39333582	2,39364266	-0,039246581645716966	1	-0,0010150111	9,39422898E-005
2	0	0	1	0	298,4676	2,02025938	2,02068424	-0,056835299081823942	1	-0,00282467389	0,000114846196
2	0	0	1	0	335,7752	1,6471827	1,64765954	-0,075103222263148915	1	-0,00531569077	0,000123744539
2	0	0	1	0	373,1228	1,27370596	1,27405155	-0,14712381830300947	1	-0,00900373515	0,000187443322
2	1	0	1	1	410,3712	1,49885237	1,49925518	0,018230797703533178	1	-0,0109911785	2,73326186E-005
2	1	0	1	1	447,6788	1,87192881	1,87238669	0,030022200554850886	1	-0,0100119207	5,62131681E-005
2	1	0	1	1	484,9864	2,24500537	2,24535847	0,031578651560401293	1	-0,00883934274	7,09053929E-005
2	1	0	0	1	522,2942	2,61808181	2,61819196	0,034832891055244832	1	-0,0075969426	9,11991956E-005
2	1	0	0	1	559,6018	2,99115872	2,99146605	0,044888457943064397	1	-0,00610958552	0,000134282294
2	1	0	1	0	596,8592	3,36283445	3,36337185	0,041761989601784122	2	0,00167796807	0,000140461096
2	1	0	0	0	634,1670	3,73591113	3,73644614	0,044664965731229914	2	0,00327182515	0,000166888232
2	0	0	0	0	671,4150	3,89164329	3,89208245	-0,016034541058750739	2	0,00449485937	6,24077584E-005
2	0	0	1	0	708,7228	3,51856685	3,51909304	-0,021697057693489619	2	0,00371600315	7,63539647E-005
2	0	0	1	0	746,0304	3,14549017	3,14601493	-0,022346472913071734	2	0,00289582647	7,03023397E-005
2	0	0	1	0	783,3380	2,77241373	2,77307463	-0,023606867814022547	2	0,00203215354	6,54636096E-005
2	0	0	0	0	820,6458	2,39933705	2,39977384	-0,027504249799272186	2	0,00108194235	6,60039805E-005
2	0	0	0	0	857,9534	2,02626061	2,02684712	-0,03742156812869424	2	-0,000150309745	7,58477981E-005
2	0	0	0	0	895,2611	1,65318298	1,65369165	-0,055270257538201139	2	-0,0018769264	9,13999611E-005
2	0	0	1	0	932,6088	1,27970731	1,28016055	-0,11596403603821414	2	-0,00469938619	0,000148452586
2	1	0	0	1	969,8570	1,49285102	1,49341869	0,02124897726052616	2	-0,00627198676	3,17336198E-005
2	1	0	0	1	1007,1646	1,86592758	1,86655486	0,031277217169257741	2	-0,00522490684	5,83806432E-005
2	1	0	1	1	1044,4724	2,23900437	2,23954439	0,032203640594767949	2	-0,0040158811	7,21214819E-005
2	1	0	1	1	1081,7800	2,61208081	2,61244011	0,034356228619193184	2	-0,00276595657	8,97535865E-005
2	1	0	0	1	1119,0878	2,98515749	2,98568416	0,043252822459356966	2	-0,00132087537	0,000129139269
2	1	0	1	0	1156,2568	3,35573316	3,35638499	0,040135983511357126	3	0,00160934392	0,000134711809
2	1	0	1	0	1193,5644	3,7288096	3,72940969	0,041697509996420525	3	0,00311036198	0,000155507092
2	0	0	0	0	1230,8226	3,89864445	3,89919853	-0,01609141031077152	3	0,00430327235	6,2743602E-005
2	0	0	0	0	1268,1302	3,52556849	3,52605414	-0,021393714330366048	3	0,0035241649	7,54353969E-005
2	0	0	0	0	1305,4378	3,15249133	3,15303349	-0,021857072745829376	3	0,00271121389	6,89160806E-005
2	0	0	1	0	1342,7456	2,77941489	2,7799511	-0,023045904194522182	3	0,00186262	6,40664875E-005
2	0	0	1	0	1380,0532	2,40633845	2,40684128	-0,026210789642020838	3	0,000937848003	6,30852082E-005
2	0	0	1	0	1417,3608	2,03326178	2,03390098	-0,035594124743645901	3	-0,000237367916	7,2394927E-005
2	0	0	0	0	1454,6686	1,66018522	1,66078711	-0,051551018858811526	3	-0,00186002092	8,56152692E-005
2	0	0	0	0	1492,0162	1,28670859	1,28713453	-0,10475027162788653	3	-0,00445571402	0,000134827686
2	1	0	1	1	1529,2644	1,48584962	1,48647583	0,021604469513813786	3	-0,00594639126	3,21145199E-005
2	1	0	0	1	1566,5722	1,85892606	1,85946083	0,031273604090394534	3	-0,00489186076	5,81520435E-005
2	1	0	0	1	1603,8798	2,23200274	2,23261905	0,032353104161167654	3	-0,00367965992	7,22321565E-005
2	1	0	0	1	1641,1875	2,60507965	2,60558605	0,034401700232763898	3	-0,00242864178	8,96365891E-005
2	1	0	1	1	1678,4952	2,97815609	2,97852659	0,04277329408149744	3	-0,000997619354	0,000127401392
2	1	0	0	0	1715,6542	3,34893179	3,34944129	0,039537007605691565	4	0,00156397477	0,000132426881
2	1	0	0	0	1752,9618	3,72200847	3,72267151	0,040198512634055437	4	0,00302320672	0,000149645857
2	0	0	1	0	1790,2000	3,90564609	3,9059732	-0,016067810654122883	4	0,00421230681	6,27604386E-005
2	0	0	1	0	1827,5076	3,53256941	3,53296137	-0,021415842140817875	4	0,00343309506	7,56613445E-005
2	0	0	0	0	1864,8154	3,15949225	3,16006947	-0,02165085824078257	4	0,00262382836	6,8418216E-005
2	0	0	0	0	1902,1230	2,78641653	2,7869606	-0,02282136028063375	4	0,00178134849	6,36022305E-005
2	0	0	0	0	1939,4306	2,41333985	2,41382885	-0,02588645833182257	4	0,000866135699	6,24854802E-005
2	0	0	1	0	1976,7384	2,04026341	2,0407548	-0,034711432453520762	4	-0,000284890324	7,08375228E-005
2	0	0	1	0	2014,0459	1,66718662	1,66767204	-0,049567276741274144	4	-0,00185432064	8,2661958E-005
2	0	0	1	0	2051,3535	1,29411018	1,29462492	-0,097913105351229658	4	-0,00432014745	0,000126760744
2	1	0	1	1	2088,6419	1,47884798	1,47953296	0,021487265648492778	4	-0,0058064498	3,17911181E-005
2	1	0	1	1	2125,9495	1,85192466	1,85250008	0,031266254101258995	4	-0,00475150207	5,79207372E-005
2	1	0	1	1	2163,2572	2,22500181	2,22552633	0,032306358541911942	4	-0,00353822694	7,18986485E-005
2	1	0	0	1	2200,5649	2,59807777	2,59856296	0,034285752990938387	4	-0,00228723697	8,90936863E-005
2	1	0	0	1	2237,8725	2,97115421	2,97173071	0,042239334067778381	4	-0,00086502108	0,000125523933
2	1	0	1	0	2275,0557	3,34253049	3,34303737	0,039254721051461427	5	0,00152637972	0,000131230001
2	1	0	0	0	2312,3635	3,71560717	3,71615553	0,039208658953645613	5	0,00296121836	0,000145705475
2	0	0	0	0	2349,6415	3,91164756	3,91203928	-0,015862110594753174	5	0,00416645594	6,2053201E-005
2	0	0	0	0	2386,9492	3,5385716	3,53912139	-0,021434561726262458	5	0,00338881649	7,58595124E-005
2	0	0	1	0	2424,2569	3,1654942	3,16592264	-0,021450448520395322	5	0,00258255331	6,79104633E-005
2	0	0	1	0	2461,5645	2,79241776	2,79291105	-0,02268287816723047	5	0,00174441643	6,33512609E-005
2	0	0	0	0	2498,8723	2,41934133	2,41982818	-0,025585335683663946	5	0,000835298095	6,19121129E-005
2	0	0	0	0	2536,1799	2,04626465	2,04683876	-0,034185466416938982	5	-0,000298858969	6,9972135E-005
2	0	0	0	0	2573,4875	1,67318797	1,67380488	-0,048183732924775846	5	-0,0018303456	8,06501703E-005
2	0	0	1	0	2610,7953	1,30011141	1,30061996	-0,092987061322977178	5	-0,00420528045	0,000120940829
2	1	0	0	1	2648,0835	1,47284687	1,4734714	0,021591810811380006	5	-0,00568751805	3,18149141E-005
2	1	0	0	1	2685,3911	1,8459233	1,84653616	0,031115516856381683	5	-0,00463505089	5,74559272E-005
2	1	0	1	1	2722,6989	2,2190001	2,21966791	0,032342768808895667	5	-0,00342503679	7,17902076E-005
2	1	0	1	1	2760,0065	2,59207654	2,59262633	0,034180637914687565	5	-0,00217784522	8,86176203E-005
2	1	0	1	1	2797,3142	2,96515393	2,96574521	0,041900128306450944	5	-0,000765731791	0,000124265105
2	1	0	1	0	2834,5615	3,3370297	3,33755875	0,039159317643174707	6	0,00149153708	0,000130696528
2	1	0	1	0	2871,8691	3,71010566	3,71076679	0,038322438391063475	6	0,00290526985	0,000142205638
2	0	0	0	0	2909,0973	3,91764855	3,9181807	-0,015545876162057632	6	0,00410495326	6,09115523E-005
2	0	0	0	0	2946,4049	3,54457235	3,54513359	-0,021289764181279619	6	0,0033290151	7,54750581E-005
2	0	0	0	0	2983,7125	3,1714952	3,17198873	-0,021473575437320701	6	0,00252520246	6,81139427E-005
2	0	0	1	0	3021,0203	2,79841924	2,79887033	-0,022669535423456538	6	0,00169035129	6,34490934E-005
2	0	0	1	0	3058,3279	2,42534232	2,42577863	-0,025583486240874698	6	0,000785849814	6,2059873E-005
2	0	0	1	0	3095,6356	2,05226612	2,05295873	-0,033857174570130458	6	-0,000336046971	6,95073832E-005
2	0	0	0	0	3132,9433	1,67918921	1,67970192	-0,046991244454316128	6	-0,00183795113	7,89312835E-005
2	0	0	0	0	3170,2509	1,30611265	1,30652583	-0,08900367841124512	6	-0,00414298056	0,000116285606
2	1	0	1	1	3207,5391	1,46684563	1,4675076	0,021691260921889514	6	-0,00564153399	3,1832089E-005
2	1	0	0	1	3244,8469	1,83992219	1,84062159	0,031088249555236979	6	-0,0045909374	5,72217032E-005
2	1	0	0	1	3282,1545	2,21299887	2,21358848	0,032372169084502042	6	-0,00338297314	7,16586583E-005
2	1	0	0	1	3319,4621	2,58607531	2,58663583	0,033965378348646381	6	-0,00213795644	8,78560677E-005
2	1	0	1	1	3356,7699	2,95915198	2,95958519	0,04148783583056048	6	-0,000733190507	0,000122786791
2	1	0	0	0	3393,9651	3,3305285	3,33094501	0,039058844507154355	7	0,00145595509	0,000130102868
2	1	0	0	0	3431,2727	3,70360494	3,70419693	0,037650949472595782	7	0,00285576191	0,000139466531
2	0	0	1	0	3468,5509	3,92365003	3,92422938	-0,015209399206839856	7	0,00406988058	5,96851714E-005
2	0	0	1	0	3505,8585	3,55057335	3,55111957	-0,021439082932590224	7	0,00329604605	7,61327465E-005
2	0	0	0	0	3543,1663	3,17749691	3,17805004	-0,021106084422811978	7	0,00249408628	6,70761947E-005
2	0	0	0	0	3580,4739	2,80441999	2,80486512	-0,022671436056650006	7	0,00166220672	6,35903198E-005
2	0	0	0	0	3617,7816	2,43134427	2,43184519	-0,025142160409903914	7	0,000761276635	6,11418436E-005
2	0	0	1	0	3655,0893	2,05826712	2,05890012	-0,033475275957715309	7	-0,000350353104	6,89222506E-005
2	0	0	1	0	3692,3969	1,68519044	1,68578148	-0,046101430224047891	7	-0,0018281932	7,77169407E-005
2	0	0	0	0	3729,7047	1,312114	1,31260967	-0,085679081639412403	7	-0,00407638401	0,000112463189
2	1	0	1	1	3766,9929	1,4608444	1,46148586	0,021523890656815786	7	-0,00560160447	3,14568606E-005
2	1	0	1	1	3804,3005	1,83392107	1,83454192	0,030968635110184608	7	-0,00455414923	5,681326E-005
2	1	0	1	1	3841,6082	2,20699811	2,2075057	0,032305835629535482	7	-0,00334831327	7,13153131E-005
2	1	0	0	1	3878,9159	2,58007431	2,58060956	0,034078720909612288	7	-0,00210439553	8,7943874E-005
2	1	0	0	1	3916,2235	2,95315051	2,95367432	0,041174427468191885	7	-0,000707120402	0,000121615849
2	1	0	1	1	3920,6647	2,99761081	2,99817228	0,043145365153367642	7	-0,000519722176	0,000129357242