File: Experimentelles/Rohdaten/Batterietests/AlteZelle/Studenten_Batterietests/LLTO_LP30_Li CV/ZView-Export/LLTO_LP30_Li_05_GCPL_C01_loop2.txt
EC-Lab ASCII FILE
Nb header lines : 3
mode	ox/red	error	control changes	Ns changes	counter inc.	Ns	time/s	control/V/mA	Ewe/V	dq/mA.h	<I>/mA	P/W	(Q-Qo)/mA.h	x	Capacity/mA.h
1	0	0	1	1	0	1	17907,42	-0,100000001	4,18802834	0	0	0	0	0	0
1	0	0	1	0	0	1	17967,42	-0,100000001	2,2782321	-0,00027773446609907683	-0,099984409006198246	0,000227787692	-0,0016650289570499366	6,2124469042775091E-005	0,0016650289570499366
1	0	0	1	0	0	1	18027,42	-0,100000001	1,49514258	-0,00027773419985464874	-0,099984313158202982	0,000149490807	-0,0033314323735084538	0,00012430022101406467	0,0033314323735084538
1	0	0	1	0	0	1	18087,42	-0,100000001	1,40785968	-0,00027773397782651914	-0,099984233228075341	0,000140763776	-0,004997836010626263	0,00018647598121844912	0,004997836010626263
1	0	0	1	0	0	1	18147,42	-0,100000001	1,35832751	-0,00027773423472088246	-0,099984325710047258	0,000135811453	-0,0066642408102316723	0,0002486517847968089	0,0066642408102316723
1	0	0	1	0	0	1	18207,42	-0,100000001	1,31765544	-0,00027773430464209782	-0,099984350881685094	0,000131744921	-0,0083306443226383539	0,0003108275403480535	0,0083306443226383539
1	0	0	1	0	0	1	18267,42	-0,100000001	1,3017875	-0,00027773422320766579	-0,099984321565289216	0,00013015834	-0,0099970475359679667	0,0003730032847403305	0,0099970475359679667
1	0	0	1	0	0	1	18327,42	-0,100000001	1,2692498	-0,0002777338159436153	-0,099984174950229261	0,000126904895	-0,011663451203966365	0,00043517904609691117	0,011663451203966365
1	0	0	1	0	0	1	18387,42	-0,100000001	1,23042989	-0,00027773352575384909	-0,099984070481912154	0,00012302339	-0,013329853888691768	0,00049735477076625453	0,013329853888691768
1	0	0	1	0	0	1	18447,42	-0,100000001	1,18985319	-0,00027773363389405936	-0,099984109412388339	0,000118966411	-0,014996255197872774	0,00055953044411218682	0,014996255197872774
1	0	0	1	0	0	1	18507,42	-0,100000001	1,14568663	-0,00027773367235643994	-0,099984123258845504	0,000114550472	-0,016662657676471248	0,00062170616109065728	0,016662657676471248
1	0	0	1	0	0	1	18567,42	-0,100000001	1,09584892	-0,00027773384208687478	-0,099984184361802803	0,000109567562	-0,018329060011595133	0,00068388187271589786	0,018329060011595133
1	0	0	1	0	0	1	18627,42	-0,100000001	1,03951895	-0,00027773374996292922	-0,09998415119718199	0,000103935417	-0,01999546331343599	0,00074605762041064832	0,01999546331343599
1	0	0	1	0	0	1	18687,42	-0,100000001	0,986034095	-0,00027773534770889414	-0,09998472638573632	9,85883526E-005	-0,021661868668410157	0,00080823344471056333	0,021661868668410157
1	0	0	1	0	0	1	18747,42	-0,100000001	0,955100358	-0,00027773522751323053	-0,099984683115296883	9,54954085E-005	-0,02332827943197768	0,00087040947081236813	0,02332827943197768
1	0	0	1	0	0	1	18807,42	-0,100000001	0,938907862	-0,00027773555988156134	-0,099984802767897434	9,38765152E-005	-0,024994691567678896	0,00093258554811032589	0,024994691567678896
1	0	0	1	0	0	1	18867,42	-0,100000001	0,928462982	-0,00027773566864472298	-0,099984841922636083	9,28322261E-005	-0,026661107163719482	0,00099476175451819814	0,026661107163719482
1	0	0	1	0	0	1	18927,42	-0,100000001	0,918037176	-0,00027773579688535798	-0,099984888089265254	9,17898433E-005	-0,028327521245302486	0,0010569379044196216	0,028327521245302486
1	0	0	1	0	0	1	18987,42	-0,100000001	0,905682743	-0,00027773609390565088	-0,099984995016572006	9,0554684E-005	-0,029993935869299763	0,0011191140745592512	0,029993935869299763
1	0	0	1	0	0	1	19047,42	-0,100000001	0,892239928	-0,00027773568678688672	-0,09998484845381513	8,92104727E-005	-0,031660352150023866	0,0011812903065135856	0,031660352150023866
1	0	0	1	0	0	1	19107,42	-0,100000001	0,878472507	-0,00027773567685112358	-0,099984844876940339	8,78339342E-005	-0,033326766156168083	0,001243466453600287	0,033326766156168083
1	0	0	1	0	0	1	19167,42	-0,100000001	0,863998592	-0,00027773575964528656	-0,099984874682839386	8,63867899E-005	-0,034993179980832717	0,0013056425939157406	0,034993179980832717
1	0	0	1	0	0	1	19227,42	-0,100000001	0,84925729	-0,00027773547968806493	-0,099984773898238374	8,49127973E-005	-0,036659593377792218	0,0013678187182729411	0,036659593377792218
1	0	0	1	0	0	1	19287,42	-0,100000001	0,834038675	-0,00027773530971010525	-0,099984712706172147	8,33911181E-005	-0,038326005787297715	0,0014299948057869046	0,038326005787297715
1	0	0	1	0	0	1	19347,42	-0,100000001	0,818609953	-0,00027773510473387107	-0,099984638914726963	8,18484186E-005	-0,039992418628343322	0,0014921709094022099	0,039992418628343322
1	0	0	1	0	0	1	19407,42	-0,100000001	0,803429544	-0,00027773597974578541	-0,09998495391901993	8,03308649E-005	-0,041658831799914899	0,0015543470253498835	0,041658831799914899
1	1	0	0	0	0	2	19449,15	0,100000001	0,845050037	0,00027780888096864026	0,10001119835956542	8,45144677E-005	-0,041151107169473389	0,0015354031367450848	0,00083343101936495962
1	1	0	0	0	0	2	19509,15	0,100000001	0,870026171	0,00027780848589829274	0,10001105613423858	8,70122385E-005	-0,039484255050311949	0,0014732106430726624	0,0025002831385263968
1	1	0	0	0	0	2	19569,15	0,100000001	0,892138064	0,0002778080569716791	0,10001090172065581	8,9223533E-005	-0,037817406212617178	0,0014110182718361728	0,0041671319762211706
1	1	0	0	0	0	2	19629,15	0,100000001	0,912722349	0,00027780853180421718	0,1000110726603716	9,1282338E-005	-0,036150556030941146	0,0013488258504539354	0,0058339821578972032
1	1	0	0	0	0	2	19689,15	0,100000001	0,932294667	0,00027780896356080963	0,10001122809274677	9,32399344E-005	-0,034483704566067757	0,0012866333811938795	0,0075008336227705894
1	1	0	0	0	0	2	19749,15	0,100000001	0,950797617	0,00027780796057110029	0,10001086701644702	9,5090094E-005	-0,032816856087285658	0,0012244410233489045	0,0091676821015526822
1	1	0	0	0	0	2	19809,15	0,100000001	0,968326747	0,00027780805838066672	0,10001090222789136	9,68432287E-005	-0,031150005793943635	0,001162248597800259	0,010834532394894706
1	1	0	0	0	0	2	19869,15	0,100000001	0,990629613	0,00027780866453589664	0,10001112044377677	9,90739791E-005	-0,029483156214299763	0,0011000561988806512	0,012501381974538578
1	1	0	0	0	0	2	19929,15	0,100000001	1,04566109	0,00027780823023534477	0,10001096409557622	0,000104577572	-0,027816305739652003	0,0010378637665672445	0,014168232449186339
1	1	0	0	0	0	2	19989,15	0,100000001	1,10283124	0,00027780840243026614	0,10001102608574866	0,000110295281	-0,026149456521268986	0,0009756713811267648	0,015835081667569357
1	1	0	0	0	0	2	20049,15	0,100000001	1,15093136	0,00027780845374655395	0,10001104455961248	0,000115105846	-0,024482603731693126	0,00091347886244027866	0,017501934457145219
1	1	0	0	0	0	2	20109,15	0,100000001	1,19439137	0,00027780929930963453	0,10001134896232518	0,000119452692	-0,022815750907534576	0,00085128634246346586	0,01916878728130377
1	1	0	0	0	0	2	20169,15	0,100000001	1,23727858	0,00027780878697997994	0,10001116452364731	0,000123741673	-0,021148899347866624	0,00078909386966649728	0,020835638840971718
1	1	0	0	0	0	2	20229,15	0,100000001	1,28112042	0,00027780882978356541	0,10001117993293827	0,000128126369	-0,019482047326167469	0,00072690137963052339	0,022502490862670874
1	1	0	0	0	0	2	20289,15	0,100000001	1,326509	0,0002778095435404943	0,10001143688543578	0,000132666071	-0,017815193119433648	0,00066470880806796813	0,024169345069404694
1	1	0	0	0	0	2	20349,15	0,100000001	1,37088561	0,00027780901698354218	0,10001124732493072	0,000137103983	-0,016148338632475626	0,00060251622604987136	0,025836199556362717
1	1	0	0	0	0	2	20409,15	0,100000001	1,36954892	0,00027780969138236512	0,10001149010850989	0,00013697063	-0,014481482290380986	0,00054032357481413306	0,02750305589845736
1	1	0	0	0	0	2	20469,15	0,100000001	1,39202368	0,0002778096463460889	0,10001147389545027	0,000139218333	-0,012814624338850005	0,00047813086352816096	0,029169913849988339
1	1	0	0	0	0	2	20529,15	0,100000001	1,44629133	0,00027780938654227389	0,10001138036607574	0,000144645586	-0,01114776763145919	0,00041593819866273133	0,030836770557379149
1	1	0	0	0	0	2	20589,15	0,100000001	1,8460815	0,00027780937740868998	0,10001137707798547	0,000184629156	-0,009480912189662912	0,00035374558101833523	0,03250362599917543
1	1	0	0	0	0	2	20649,15	0,100000001	2,82773805	0,00027781039275725686	0,10001174260347398	0,000282807014	-0,0078140505501379955	0,00029155273212835091	0,034170487638700339
1	1	0	0	0	0	2	20709,15	0,100000001	3,30610347	0,00027780967827431027	0,1000114853896101	0,000330648327	-0,0061471918453471078	0,00022935999273723894	0,035837346343491219
1	1	0	0	0	0	2	20769,15	0,100000001	3,53904223	0,00027780866751819846	0,10001112151740547	0,000353943586	-0,0044803363185115546	0,00016716737191991325	0,037504201870326778
1	1	0	0	0	0	2	20829,15	0,100000001	3,70465255	0,00027780913429417546	0,1000112895567592	0,00037050707	-0,002813482270132375	0,00010497480626578272	0,039171055918705965
1	1	0	0	0	0	2	20889,15	0,100000001	3,86942244	0,00027780983244006832	0,10001154088928368	0,000386986911	-0,0011466256112498104	4,2782143210261018E-005	0,040837912577588525
1	1	0	0	0	0	2	20949,15	0,100000001	4,01412392	0,00027780957092137798	0,10001144674255402	0,000401458354	0,00052023268470247002	-1,9410580926532845E-005	0,0425047708735408
1	1	0	0	0	0	2	21009,15	0,100000001	4,15407038	0,00027780879726757606	0,10001116822718194	0,000415453425	0,0021870858879411824	-8,1603115047336269E-005	0,044171624076779514
1	1	0	0	0	0	2	21031,44	0,100000001	4,20000076	6,3812649764948416E-005	0,10001111969281706	0,000420046767	0,0028065162225704662	-0,00010471489366529733	0,044791054411408794