File: Experimentelles/Rohdaten/Batterietests/AlteZelle/Studenten_Batterietests/LLTO_LP30_Li CV/ZView-Export/LLTO_LP30_Li_02_CV_C01_loop8.txt
EC-Lab ASCII FILE
Nb header lines : 3
mode	ox/red	error	control changes	counter inc.	time/s	control/V	Ewe/V	<I>/mA	cycle number	(Q-Qo)/C	P/W
2	0	0	1	0	6060,88	2,11243296	2,11261654	-0,04680934548377991	9	0	9,88901957E-005
2	0	0	0	0	6066,96	2,05162764	2,05225849	-0,045158049586461856	9	-0,000268969859	9,26759894E-005
2	0	0	0	0	6073,06	1,99062312	1,99097836	-0,04755885072518151	9	-0,000553488208	9,4688643E-005
2	0	0	0	0	6079,16	1,9296186	1,93022966	-0,049975491769146259	9	-0,000853166566	9,64641731E-005
2	0	0	1	0	6085,26	1,86861396	1,86907995	-0,052970806835219264	9	-0,0011691195	9,90066765E-005
2	0	0	1	0	6091,36	1,8076092	1,80810094	-0,056708693872982106	9	-0,00150467025	0,000102535043
2	0	0	1	0	6097,46	1,74660456	1,74697125	-0,061982293826683187	9	-0,00186680665	0,000108281289
2	0	0	0	0	6103,56	1,68559968	1,68615234	-0,069287517321451226	9	-0,00226767757	0,000116829309
2	0	0	0	0	6109,66	1,62459517	1,62502277	-0,078166523676676198	9	-0,00271776016	0,000127022387
2	0	0	0	0	6115,76	1,56359029	1,56417394	-0,094817274347102963	9	-0,00323901628	0,000148310704
2	0	0	1	0	6121,90	1,50218582	1,50245297	-0,14674859975154186	9	-0,00395204686	0,000220482863
2	0	0	1	0	6128,00	1,44118106	1,44170427	-0,26882001330765747	9	-0,00518629141	0,000387558975
2	0	0	1	0	6134,10	1,38017654	1,38058472	-0,43826247099787174	9	-0,00733395526	0,000605058449
2	0	0	0	0	6140,20	1,31917179	1,31936491	-0,61320168913031642	9	-0,0105478112	0,000809036777
2	0	0	0	0	6146,30	1,25816715	1,2587266	-0,77591626609986266	9	-0,0147906048	0,000976666459
2	0	0	0	0	6152,40	1,19716251	1,19756699	-0,9544446887448448	9	-0,0200728886	0,0011430115
2	0	0	1	0	6158,54	1,1357578	1,1359762	-1,0886282532786318	9	-0,0263813641	0,00123665575
2	0	0	1	0	6164,64	1,07475317	1,07489669	-1,162948802113533	9	-0,0332778357	0,0012500498
2	0	0	1	0	6170,74	1,01374853	1,01410794	-1,1872933370371683	9	-0,0404732637	0,00120404363
2	0	0	0	0	6176,84	0,952743888	0,953108668	-1,155590921019515	9	-0,0476519801	0,00110140373
2	1	0	1	0	6182,90	0,907840431	0,908088565	-0,93682506649444621	9	-0,0543752946	0,000850720156
2	1	0	1	0	6189,04	0,969245136	0,969609022	-0,21884071803651779	9	-0,0576060601	0,000212189931
2	1	0	1	0	6195,22	1,03104985	1,03148043	0,11878116944959971	9	-0,0577966869	0,000122520447
2	1	0	0	0	6201,32	1,09205449	1,09241951	0,3103317886125303	9	-0,0564457998	0,000339012506
2	1	0	0	0	6207,42	1,15305901	1,15348899	0,45489997370168435	9	-0,0540969633	0,000524722098
2	1	0	0	0	6213,52	1,21406376	1,2146486	0,58625249455993434	9	-0,0509150475	0,000712090754
2	1	0	1	0	6219,62	1,27506852	1,2755878	0,70781834578762214	9	-0,0469580032	0,000902884465
2	1	0	1	0	6225,72	1,33607316	1,33648682	0,81076889236768051	9	-0,0423122682	0,00108358194
2	1	0	1	0	6231,82	1,3970778	1,39756632	0,89036778733133914	9	-0,0371095687	0,00124434801
2	1	0	0	0	6237,92	1,45808244	1,45871603	0,97745956387370829	9	-0,0314512476	0,00142583589
2	1	0	0	0	6244,05	1,51938701	1,51979542	1,1248008264228738	9	-0,0249668695	0,00170946715
2	1	0	0	0	6250,15	1,58039176	1,58092487	1,086510878677167	9	-0,0180680882	0,00171769212
2	1	0	1	0	6256,25	1,6413964	1,64189422	0,6936821288739648	9	-0,0124645503	0,00113895268
2	1	0	1	0	6262,39	1,70280111	1,70340455	0,11605073759953168	9	-0,0100852391	0,000197681351
2	1	0	1	0	6268,49	1,76380575	1,76439393	0,056744182870412832	9	-0,00963390153	0,00010011909
2	1	0	0	0	6274,63	1,82521045	1,82553351	0,046369629514325997	9	-0,00932077039	8,46493131E-005
2	1	0	0	0	6280,73	1,88621521	1,88676333	0,041783322735379213	9	-0,00905210245	7,88352409E-005
2	1	0	0	0	6286,83	1,94721985	1,94779253	0,039586516601654355	9	-0,00880321767	7,71063205E-005
2	1	0	1	0	6292,93	2,00822449	2,00855136	0,038483552935455603	9	-0,00856351387	7,72961939E-005
2	1	0	1	0	6299,03	2,06922913	2,06976104	0,038259874243522118	9	-0,00832761079	7,91887942E-005
2	1	0	1	0	6305,13	2,13023376	2,13062	0,038276606025950291	9	-0,00809283927	8,15529056E-005
2	1	0	0	0	6311,23	2,1912384	2,19167948	0,038655019821211059	9	-0,00785661582	8,47194169E-005
2	1	0	0	0	6317,34	2,25224304	2,25279927	0,039338298956863584	9	-0,00761657441	8,86212947E-005
2	1	0	0	0	6323,44	2,31324768	2,31388879	0,040617865306558086	9	-0,00737068616	9,39852252E-005
2	1	0	1	0	6329,54	2,37425232	2,37468743	0,041800980524082208	9	-0,00711800857	9,92642599E-005
2	1	0	1	0	6335,64	2,43525696	2,43568659	0,04323758087897056	9	-0,00685781194	0,000105313193
2	1	0	1	0	6341,74	2,49626184	2,49673581	0,045093985895315661	9	-0,0065868902	0,000112587768
2	1	0	0	0	6347,84	2,55726647	2,55771518	0,046914413018384947	9	-0,0063048671	0,000119993703
2	1	0	0	0	6353,94	2,61827111	2,61877465	0,0489459295252648	9	-0,00601114659	0,000128178363
2	1	0	0	0	6360,04	2,67927551	2,67974377	0,051217477671646918	9	-0,00570424506	0,000137249721
2	1	0	1	0	6366,14	2,74028039	2,74074316	0,053591375142180819	9	-0,00538265519	0,000146880193
2	1	0	1	0	6372,24	2,80128503	2,80178261	0,056172002960617306	9	-0,00504572922	0,000157381743
2	1	0	1	0	6378,34	2,86228967	2,86271143	0,058891811660335859	9	-0,00469327206	0,000168590268
2	1	0	0	0	6384,44	2,92329431	2,9240818	0,061522564559709056	9	-0,00432480685	0,000179897004
2	1	0	0	0	6390,54	2,98429894	2,9847703	0,064155593242806592	9	-0,00394016597	0,000191489715
2	1	0	0	0	6396,64	3,04530382	3,0458498	0,067005803556336781	9	-0,00353811029	0,000204089607
2	1	0	1	0	6402,74	3,10630846	3,10682893	0,070485443924553805	9	-0,00311666424	0,000218986213
2	1	0	1	0	6408,84	3,16731286	3,16792822	0,073910514843494874	9	-0,00267458078	0,000234143212
2	1	0	1	0	6414,94	3,2283175	3,22872734	0,078019908939798707	9	-0,00220955093	0,000251905003
2	1	0	0	0	6421,04	3,28932238	3,28957582	0,083180516162732032	9	-0,00171634159	0,000273628626
2	1	0	0	0	6427,14	3,35032701	3,35082579	0,090152437565848013	9	-0,0011868052	0,0003020851
2	1	0	0	0	6433,24	3,41133165	3,41200566	0,098682619902926234	9	-0,000610900926	0,000336705649
2	1	0	1	0	6439,38	3,47273636	3,4733057	0,10865004492613162	9	2,65440522E-005	0,000377374818
2	1	0	1	0	6445,49	3,533741	3,53435493	0,12018828447132067	9	0,000725383929	0,000424788042
2	1	0	1	0	6451,59	3,59474564	3,59508348	0,13404371050031272	9	0,00150188326	0,000481898314
2	1	0	0	0	6457,69	3,65575027	3,65645385	0,14768331785065402	9	0,00236450671	0,000539997243
2	1	0	0	0	6463,79	3,71675491	3,71735263	0,15893455117475219	9	0,00330219022	0,000590815791
2	1	0	0	0	6469,89	3,77775979	3,77824187	0,16955582436639792	9	0,00430526258	0,000640622922
2	1	0	1	0	6475,99	3,83876443	3,83923125	0,18160238970691955	9	0,00537734572	0,000697213574
2	1	0	1	0	6482,09	3,89976907	3,9004209	0,19667506955253568	9	0,00653230026	0,000767115562
2	1	0	1	0	6488,19	3,96077371	3,96119952	0,21359353171040675	9	0,00778500596	0,000846086594
2	1	0	0	0	6494,29	4,02177811	4,02246904	0,2295954117241008	9	0,00914039742	0,000923540443
2	1	0	0	0	6500,39	4,08278275	4,08329821	0,2421674802123257	9	0,0105849179	0,000988841988
2	1	0	1	0	6506,49	4,14378786	4,14447784	0,2504736201372001	9	0,0120897498	0,00103808241
2	0	0	0	1	6512,54	4,19569111	4,19625473	0,21741729453341741	9	0,0136327017	0,000912338379
2	0	0	0	1	6518,64	4,13468695	4,13529539	0,073075531671444429	9	0,0143917436	0,000302188913
2	0	0	0	1	6524,78	4,07328224	4,0738349	0,032538869612229293	9	0,014696789	0,00013255798
2	0	0	1	1	6530,88	4,01227713	4,01269531	0,012952085000825008	9	0,0148288738	5,19727691E-005
2	0	0	1	1	6537,02	3,9508729	3,95121527	0,00088591300724753446	9	0,0148675507	3,50043297E-006
2	0	0	1	1	6543,12	3,88986826	3,89029622	-0,0069064802980089293	9	0,0148470588	2,68682543E-005
2	0	0	0	1	6549,26	3,82846355	3,82885551	-0,011870677876383267	9	0,0147875827	4,54511101E-005
2	0	0	0	1	6555,36	3,76745892	3,76805687	-0,01540772468918783	9	0,0147025548	5,80571832E-005
2	0	0	0	1	6561,46	3,70645404	3,70692754	-0,017931504204170771	9	0,014599232	6,64707841E-005
2	0	0	1	1	6567,57	3,6454494	3,64597797	-0,019953276763165702	9	0,0144812055	7,27492079E-005
2	0	0	1	1	6573,67	3,58444476	3,58494878	-0,021943496030871811	9	0,0143509731	7,86663077E-005
2	0	0	1	1	6579,77	3,52344012	3,5239296	-0,023190957270950717	9	0,0142112281	8,17233013E-005
2	0	0	0	1	6585,87	3,46243525	3,46283007	-0,024191351355208611	9	0,014064325	8,37705375E-005
2	0	0	0	1	6591,97	3,40143061	3,40203118	-0,02518318106497952	9	0,0139113823	8,56739643E-005
2	0	0	0	1	6598,07	3,34042597	3,34085131	-0,026359948271419965	9	0,0137526346	8,80646694E-005
2	0	0	1	1	6604,17	3,27942133	3,27975225	-0,027290642212998778	9	0,0135879703	8,95065459E-005
2	0	0	1	1	6610,27	3,21841669	3,21883297	-0,028149683426211824	9	0,0134176165	9,060913E-005
2	0	0	1	1	6616,37	3,15741205	3,15783358	-0,028809719020500806	9	0,013242186	9,09762966E-005
2	0	0	0	1	6622,47	3,09640765	3,09698486	-0,029489487981967046	9	0,0130624268	9,13284966E-005
2	0	0	0	1	6628,57	3,03540301	3,03569508	-0,029926111417201696	9	0,0128794136	9,08465518E-005
2	0	0	0	1	6634,67	2,97439837	2,9747858	-0,030165432942643181	9	0,0126942219	8,97357022E-005
2	0	0	1	1	6640,77	2,9133935	2,91403723	-0,030318965271968979	9	0,0125077497	8,83505927E-005
2	0	0	1	1	6646,87	2,85238886	2,85273695	-0,030281724728411117	9	0,0123207085	8,63857931E-005
2	0	0	1	1	6652,97	2,79138422	2,79194856	-0,03049840062158185	9	0,0121334866	8,51499644E-005
2	0	0	0	1	6659,07	2,73037958	2,73068857	-0,030426391031748326	9	0,0119462134	8,30849967E-005
2	0	0	0	1	6665,17	2,66937494	2,66981959	-0,030596480336195552	9	0,0117584523	8,16870815E-005
2	0	0	0	1	6671,27	2,6083703	2,60900068	-0,030878962153413683	9	0,0115689561	8,05632299E-005
2	0	0	1	1	6677,37	2,54736567	2,54789114	-0,031759950603979405	9	0,0113757737	8,09208941E-005
2	0	0	1	1	6683,47	2,48636103	2,48682189	-0,032937720592599546	9	0,0111767286	8,19102424E-005
2	0	0	1	1	6689,57	2,42535639	2,42583251	-0,034334737535876627	9	0,0109698679	8,32903243E-005
2	0	0	0	1	6695,67	2,36435175	2,3647027	-0,03591449959397641	9	0,0107540078	8,49271164E-005
2	0	0	0	1	6701,78	2,30334711	2,30369377	-0,037703619260961882	9	0,0105282739	8,68575953E-005
2	0	0	0	1	6707,88	2,24234247	2,24295497	-0,039375121394793376	9	0,0102921147	8,83166213E-005
2	0	0	1	1	6713,98	2,18133783	2,18172503	-0,041197915183147418	9	0,0100449175	8,98825238E-005
2	0	0	1	1	6720,08	2,12033296	2,12076592	-0,043096747239663501	9	0,00978605449	9,1398113E-005
2	0	0	1	1	6720,83	2,11273289	2,11277676	-0,043979887850582598	9	0,00975334831	9,29196831E-005