File: Experimentelles/Rohdaten/Batterietests/AlteZelle/Studenten_Batterietests/LLTO_LP30_Li CV/ZView-Export/LLTO_LP30_Li_05_GCPL_C01_loop1.txt
EC-Lab ASCII FILE
Nb header lines : 3
mode	ox/red	error	control changes	Ns changes	counter inc.	Ns	time/s	control/V/mA	Ewe/V	dq/mA.h	<I>/mA	P/W	(Q-Qo)/mA.h	x	Capacity/mA.h
1	0	0	1	1	0	1	14748,41	-0,100000001	4,18800926	0	0	0	0	0	0
1	0	0	1	0	0	1	14808,41	-0,100000001	2,28879166	-0,00027773375322338608	-0,099984152370946458	0,000228842895	-0,0016650294788678422	6,2124488512502746E-005	0,0016650294788678422
1	0	0	1	0	0	1	14868,41	-0,100000001	1,4990952	-0,00027773320760867661	-0,099983955949648678	0,000149885469	-0,0033314310598038067	0,000124300171997978	0,0033314310598038067
1	0	0	1	0	0	1	14928,41	-0,100000001	1,40910089	-0,00027773326562386422	-0,099983976835116467	0,00014088751	-0,0049978301170244749	0,00018647576132024237	0,0049978301170244749
1	0	0	1	0	0	1	14988,41	-0,100000001	1,35947323	-0,00027773378982063798	-0,099984165545957312	0,000135925802	-0,0066642317020040358	0,00024865144495658966	0,0066642317020040358
1	0	0	1	0	0	1	15048,41	-0,100000001	1,31798005	-0,00027773477480601933	-0,099984520140698893	0,000131777604	-0,0083306388893044608	0,00031082733762306074	0,0083306388893044608
1	0	0	1	0	0	1	15108,41	-0,100000001	1,30255127	-0,0002777344176409145	-0,099984391561259584	0,000130234796	-0,0099970468884992051	0,00037300326058240051	0,0099970468884992051
1	0	0	1	0	0	1	15168,41	-0,100000001	1,27127385	-0,00027773504455635946	-0,099984617250822502	0,000127107836	-0,0116634563473136	0,00043517923800211187	0,0116634563473136
1	0	0	1	0	0	1	15228,41	-0,100000001	1,23274028	-0,00027773408828013475	-0,099984272991377446	0,000123254635	-0,013329863057704845	0,00049735511287446029	0,013329863057704845
1	0	0	1	0	0	1	15288,41	-0,100000001	1,19256461	-0,0002777347488229473	-0,099984510786792832	0,000119237986	-0,014996270835353261	0,0005595310275676087	0,014996270835353261
1	0	0	1	0	0	1	15348,41	-0,100000001	1,14925742	-0,0002777341609783471	-0,099984299162734208	0,0001149077	-0,016662676110697699	0,00062170684889643123	0,016662676110697699
1	0	0	1	0	0	1	15408,41	-0,100000001	1,10062265	-0,00027773407605704333	-0,099984268591064474	0,000110044952	-0,018329080745841475	0,00068388264633850637	0,018329080745841475
1	0	0	1	0	0	1	15468,41	-0,100000001	1,0455339	-0,00027773412993840045	-0,09998428798835328	0,000104536964	-0,019995486396241933	0,00074605848166117325	0,019995486396241933
1	0	0	1	0	0	1	15528,41	-0,100000001	0,991552532	-0,00027773583837226032	-0,099984903024550285	9,91402849E-005	-0,021661892475452269	0,00080823433298331341	0,021661892475452269
1	0	0	1	0	0	1	15588,41	-0,100000001	0,958021879	-0,00027773569834522077	-0,099984852614815437	9,57876764E-005	-0,023328307223591946	0,00087041050775486259	0,023328307223591946
1	0	0	1	0	0	1	15648,41	-0,100000001	0,940282702	-0,00027773559922724963	-0,099984816932345382	9,40139944E-005	-0,024994721973095494	0,00093258668257729971	0,024994721973095494
1	0	0	1	0	0	1	15708,41	-0,100000001	0,929627776	-0,00027773628704498214	-0,099985064546732083	9,29488961E-005	-0,026661137476416093	0,00099476288552566451	0,026661137476416093
1	0	0	1	0	0	1	15768,41	-0,100000001	0,919163764	-0,00027773610296224557	-0,099984998276946112	9,19025842E-005	-0,028327552582117827	0,0010569390736383349	0,028327552582117827
1	0	0	1	0	0	1	15828,41	-0,100000001	0,907305837	-0,00027773534841131834	-0,099984726638609024	9,07167268E-005	-0,029993966644045376	0,0011191152228063869	0,029993966644045376
1	0	0	1	0	0	1	15888,41	-0,100000001	0,894263983	-0,00027773593105127414	-0,099984936388995648	8,94129262E-005	-0,031660380301807898	0,0011812913568944986	0,031660380301807898
1	0	0	1	0	0	1	15948,41	-0,100000001	0,880382001	-0,00027773567506132854	-0,099984844232614131	8,80248554E-005	-0,033326796440718483	0,00124346758355758	0,033326796440718483
1	0	0	1	0	0	1	16008,41	-0,100000001	0,866289973	-0,00027773645316685242	-0,099985124350606106	8,66161135E-005	-0,03499321344505664	0,0013056438425109282	0,03499321344505664
1	0	0	1	0	0	1	16068,41	-0,100000001	0,851586878	-0,00027773624713677501	-0,099985050179777357	8,51459554E-005	-0,036659631192711488	0,0013678201291984214	0,036659631192711488
1	0	0	1	0	0	1	16128,41	-0,100000001	0,83663559	-0,00027773558740690349	-0,099984812677020723	8,36508552E-005	-0,038326045613920941	0,0014299962917717642	0,038326045613920941
1	0	0	1	0	0	1	16188,41	-0,100000001	0,821493328	-0,00027773537907583846	-0,099984737677836416	8,21367939E-005	-0,039992458177232915	0,0014921723850244547	0,039992458177232915
1	0	0	1	0	0	1	16248,41	-0,100000001	0,806083739	-0,00027773548613033363	-0,09998477621745513	8,05961026E-005	-0,041658871776338669	0,0015543485169240032	0,041658871776338669
1	1	0	0	0	0	2	16291,23	0,100000001	0,839837134	0,00027780865371268656	0,1000111165474211	8,39930508E-005	-0,041736920321712058	0,0015572606130892698	0,0005556220569821696
1	1	0	0	0	0	2	16351,23	0,100000001	0,866226256	0,00027780850340508752	0,10001106243668478	8,6632208E-005	-0,040070068122582714	0,001495068116433137	0,0022224742561115162
1	1	0	0	0	0	2	16411,23	0,100000001	0,888681889	0,00027780876836884352	0,10001115782363811	8,88781069E-005	-0,038403215165874605	0,0014328755915107218	0,0038893272128196224
1	1	0	0	0	0	2	16471,23	0,100000001	0,909571707	0,00027780908457562326	0,10001127165808019	9,096742E-005	-0,036736362370763802	0,0013706830726177195	0,0055561800079304288
1	1	0	0	0	0	2	16531,23	0,100000001	0,929201245	0,00027780908959897024	0,10001127346648512	9,2930597E-005	-0,035069507762133248	0,0013084904860598566	0,0072230346165609843
1	1	0	0	0	0	2	16591,23	0,100000001	0,947933376	0,00027780889376542637	0,10001120296640848	9,48039597E-005	-0,033402654804993421	0,0012462979611213338	0,0088898875737008115
1	1	0	0	0	0	2	16651,23	0,100000001	0,965557992	0,00027780886068898768	0,1000111910588904	9,6566604E-005	-0,031735801236743731	0,00118410541338148	0,010556741141950504
1	1	0	0	0	0	2	16711,23	0,100000001	0,986142278	0,00027780905419877834	0,10001126072241589	9,8625329E-005	-0,030068947283334618	0,0011219128512708102	0,012223595095359613
1	1	0	0	0	0	2	16771,23	0,100000001	1,03787041	0,00027780828809738157	0,10001098492590971	0,00010379844	-0,028402097100148602	0,0010597204298322334	0,013890445278545634
1	1	0	0	0	0	2	16831,23	0,100000001	1,09616721	0,00027780870390600627	0,10001113461701642	0,000109628927	-0,02673524593240561	0,00099752797165851213	0,015557296446288621
1	1	0	0	0	0	2	16891,23	0,100000001	1,14512646	0,00027780883539219699	0,10001118195204565	0,00011452545	-0,025068393658366883	0,00093533547220740954	0,017224148720327347
1	1	0	0	0	0	2	16951,23	0,100000001	1,18881559	0,0002778085147593584	0,10001106652422237	0,000118894714	-0,02340153994812113	0,00087314291916949171	0,018891002430573101
1	1	0	0	0	0	2	17011,23	0,100000001	1,23176014	0,00027780921883342995	0,10001131999089117	0,000123189951	-0,021734687193142042	0,00081095040177385766	0,020557855185552189
1	1	0	0	0	0	2	17071,23	0,100000001	1,27581203	0,00027780864758003088	0,10001111433966502	0,000127595384	-0,020067833991825168	0,00074875786772476058	0,022224708386869062
1	1	0	0	0	0	2	17131,23	0,100000001	1,32083786	0,00027780865088022416	0,10001111552773462	0,000132098474	-0,018400982286508714	0,00068656538949345062	0,02389156009218552
1	1	0	0	0	0	2	17191,23	0,100000001	1,36658919	0,00027780861241163478	0,10001110167904229	0,000136674091	-0,016734129387171315	0,00062437286671161382	0,025558412991522915
1	1	0	0	0	0	2	17251,23	0,100000001	1,36798322	0,00027780902250111101	0,1000112493112555	0,000136813716	-0,015067275870188653	0,00056218032088460179	0,027225266508505574
1	1	0	0	0	0	2	17311,23	0,100000001	1,38742173	0,00027780884188496403	0,10001118428944181	0,000138757692	-0,01340042291898156	0,00049998779616743693	0,028892119459712672
1	1	0	0	0	0	2	17371,23	0,100000001	1,43840516	0,0002778086753711105	0,10001112434445379	0,000143856523	-0,011733569597704955	0,00043779525764248115	0,03055897278098928
1	1	0	0	0	0	2	17431,23	0,100000001	1,69171822	0,0002778082839834193	0,10001098344488328	0,000169190404	-0,010066719718528706	0,00037560284754691744	0,032225822660165536
1	1	0	0	0	0	2	17491,23	0,100000001	2,74778748	0,0002778093901073767	0,10001138164951275	0,000274810009	-0,0083998647344915405	0,00031341024698212941	0,033892677644202694
1	1	0	0	0	0	2	17551,23	0,100000001	3,25678134	0,00027780893189873958	0,10001121669440141	0,000325714675	-0,0067330091290262848	0,00025121762323102384	0,035559533249667949
1	1	0	0	0	0	2	17611,23	0,100000001	3,49842739	0,00027780980349787408	0,10001153047009362	0,000349883077	-0,0050661528468140314	0,00018902497422957792	0,037226389531880205
1	1	0	0	0	0	2	17671,23	0,100000001	3,64914346	0,00027780943264895014	0,10001139696447939	0,000364955922	-0,0033992961133283885	0,00012683230839051507	0,038893246265365856
1	1	0	0	0	0	2	17731,23	0,100000001	3,802953	0,00027780949848641952	0,10001142066596864	0,000380338723	-0,001732440763257031	6,46396941684992E-005	0,040560101615437216
1	1	0	0	0	0	2	17791,23	0,100000001	3,94584012	0,00027780943706921405	0,10001139855577442	0,000394628994	-6,5584874422187098E-005	2,4470598444932976E-006	0,042226957504272064
1	1	0	0	0	0	2	17851,23	0,100000001	4,07946634	0,00027780935128861002	0,10001136767475658	0,000407993008	0,0016012713973079277	-5,9745588765849971E-005	0,043893813776002182
1	1	0	0	0	0	2	17907,37	0,100000001	4,20000076	0,00017049162346455789	0,10001138209251459	0,000420047872	0,0031608073823985933	-0,00011793397318801539	0,045453349761092851