File: Experimentelles/Rohdaten/Batterietests/AlteZelle/Studenten_Batterietests/LLTO_LP30_Li CV/ZView-Export/LLTO_LP30_Li_02_CV_C01_loop9.txt
EC-Lab ASCII FILE
Nb header lines : 3
mode	ox/red	error	control changes	counter inc.	time/s	control/V	Ewe/V	<I>/mA	cycle number	(Q-Qo)/C	P/W
2	0	0	1	0	6720,97	2,11243296	2,11333823	-0,053025845438241958	10	0	0,000112061549
2	0	0	0	0	6727,10	2,05112767	2,05136609	-0,045375245458368794	10	-0,000274474616	9,30812384E-005
2	0	0	0	0	6733,25	1,98962307	1,99005616	-0,04786333107040272	10	-0,000562759698	9,5250718E-005
2	0	0	0	0	6739,40	1,92811835	1,9287461	-0,050269251087835866	10	-0,000866184884	9,69566245E-005
2	0	0	1	0	6745,55	1,86661363	1,8670249	-0,053080207765257626	10	-0,00118611788	9,91020715E-005
2	0	0	1	0	6751,70	1,8051089	1,80556476	-0,056956673545452531	10	-0,0015260689	0,00010283896
2	0	0	1	0	6757,85	1,74360418	1,74401402	-0,0624135082083136	10	-0,00189344923	0,000108850036
2	0	0	0	0	6764,00	1,68209946	1,68282425	-0,069871085075040806	10	-0,00230086665	0,000117580756
2	0	0	0	0	6770,15	1,62059486	1,62124372	-0,078882054600399206	10	-0,00275871553	0,000127887033
2	0	0	1	0	6776,30	1,55909002	1,55923247	-0,097062883810814963	10	-0,00329302414	0,0001513436
2	0	0	1	0	6782,49	1,49718547	1,4974407	-0,15531225409358762	10	-0,00404244009	0,000232570892
2	0	0	1	0	6788,64	1,43568075	1,4362309	-0,28539067033367747	10	-0,00536436914	0,00040988691
2	0	0	0	0	6794,79	1,37417603	1,37481058	-0,45886396104470074	10	-0,00764595298	0,00063085102
2	0	0	0	0	6800,94	1,3126713	1,31301951	-0,63434380525723187	10	-0,0110162487	0,000832905818
2	0	0	0	0	6807,09	1,25116658	1,25176954	-0,79921433546891046	10	-0,0154261868	0,00100043218
2	0	0	1	0	6813,25	1,18966198	1,1901989	-0,97830965121587354	10	-0,0209074281	0,00116438302
2	0	0	1	0	6819,44	1,12775719	1,12825727	-1,104363172935944	10	-0,0273893438	0,00124600576
2	0	0	1	0	6825,59	1,06625247	1,06669664	-1,1702250189458328	10	-0,034412615	0,00124827505
2	0	0	0	0	6831,74	1,00474775	1,00492549	-1,1860424444700275	10	-0,041689001	0,00119188428
2	0	0	0	0	6837,89	0,943243206	0,943735778	-1,1437809548030282	10	-0,0488866642	0,00107942696
2	1	0	1	0	6843,99	0,917841196	0,918183267	-0,76842656048635942	10	-0,0553549714	0,00070555642
2	1	0	1	0	6850,18	0,979745984	0,980225086	-0,14089665814147656	10	-0,057906393	0,000138110438
2	1	0	0	0	6856,41	1,0420506	1,04250741	0,1618951093017431	10	-0,0577371642	0,000168776853
2	1	0	0	0	6862,56	1,1035552	1,10406804	0,34102192427962963	10	-0,0561552681	0,000376511394
2	1	0	0	0	6868,71	1,16506004	1,16532803	0,48241315580283482	10	-0,0536112115	0,000562169589
2	1	0	1	0	6874,86	1,22656476	1,22702897	0,61321056339268762	10	-0,0502363294	0,00075242715
2	1	0	1	0	6881,01	1,28806949	1,28867972	0,73278608126565811	10	-0,0460867323	0,000944326574
2	1	0	0	0	6887,16	1,34957421	1,34986973	0,83138667002320154	10	-0,0412618183	0,00112226373
2	1	0	0	0	6893,31	1,41107893	1,4114002	0,90704127866774797	10	-0,035902217	0,00128019822
2	1	0	0	0	6899,49	1,47288346	1,47305107	1,0181326512247323	10	-0,0300202947	0,00149976136
2	1	0	1	0	6905,64	1,5343883	1,53480208	1,1422756494333299	10	-0,0233023949	0,00175316702
2	1	0	1	0	6911,79	1,59589291	1,59645295	1,0231256379435462	10	-0,0164543781	0,00163337192
2	1	0	1	0	6917,94	1,65739763	1,65770292	0,55017851603527834	10	-0,0114799188	0,000912032556
2	1	0	0	0	6924,13	1,7193023	1,71978474	0,081608882891790029	10	-0,00992538035	0,000140349715
2	1	0	0	0	6930,28	1,78080702	1,7811048	0,053511579831440947	10	-0,00953292102	9,53097333E-005
2	1	0	0	0	6936,47	1,84271181	1,84323692	0,045152268935150144	10	-0,00922901928	8,32263322E-005
2	1	0	1	0	6942,63	1,90421653	1,90492773	0,041581813789283219	10	-0,00896174833	7,92103529E-005
2	1	0	1	0	6948,78	1,96572125	1,96608746	0,039674914102458157	10	-0,00871103723	7,80043483E-005
2	1	0	1	0	6954,93	2,02722597	2,02781844	0,039051447422631699	10	-0,00846777391	7,91892453E-005
2	1	0	0	0	6961,08	2,08873057	2,08923864	0,038636912213405536	10	-0,00822758768	8,07217293E-005
2	1	0	0	0	6967,23	2,15023518	2,1507194	0,038869678993554144	10	-0,00798784755	8,35977698E-005
2	1	0	1	0	6973,38	2,21174097	2,21213961	0,039338950534715533	10	-0,00774605572	8,7023247E-005
2	1	0	1	0	6979,53	2,27324486	2,27389073	0,040113518965275206	10	-0,0075003854	9,12137621E-005
2	1	0	1	0	6985,68	2,33474946	2,33516049	0,041251876381769139	10	-0,0072489935	9,63297498E-005
2	1	0	0	0	6991,83	2,39625454	2,39671183	0,042257712065875251	10	-0,00699071679	0,000101279555
2	1	0	0	0	6997,98	2,4577589	2,45818162	0,044000686253032883	10	-0,00672391895	0,000108161679
2	1	0	0	0	7004,13	2,51926351	2,51948142	0,045863387349527219	10	-0,00644571753	0,000115551949
2	1	0	1	0	7010,28	2,58076835	2,58121252	0,047807171145298701	10	-0,00615647389	0,000123400474
2	1	0	1	0	7016,43	2,64227295	2,64270306	0,049838448195562931	10	-0,00585493864	0,000131708221
2	1	0	1	0	7022,58	2,70377755	2,70443416	0,052257666926986304	10	-0,00553956954	0,000141327415
2	1	0	0	0	7028,73	2,76528239	2,76561379	0,054650155400546522	10	-0,00520914886	0,000151141227
2	1	0	0	0	7034,88	2,82678723	2,82723475	0,057194252401435277	10	-0,00486330129	0,000161701581
2	1	0	0	0	7041,03	2,88829184	2,88880539	0,05985519022215136	10	-0,00450169062	0,000172909989
2	1	0	1	0	7047,18	2,94979644	2,95011568	0,062414065333238515	10	-0,00412415108	0,000184128716
2	1	0	1	0	7053,33	3,01130104	3,01151562	0,065295316046103693	10	-0,00373013201	0,000196637862
2	1	0	1	0	7059,48	3,07280588	3,07326674	0,068254277168307392	10	-0,00331810233	0,000209763602
2	1	0	0	0	7065,63	3,13431048	3,13473701	0,071480310657837606	10	-0,00288623408	0,000224071977
2	1	0	0	0	7071,79	3,19581509	3,19635773	0,07521019414222496	10	-0,00243341387	0,000240398687
2	1	0	0	0	7077,94	3,25731993	3,25783825	0,07963769144077568	10	-0,00195622887	0,000259446708
2	1	0	1	0	7084,09	3,31882453	3,31943917	0,085287940785443878	10	-0,00144833513	0,000283108122
2	1	0	1	0	7090,24	3,38032937	3,38076901	0,092398994350029517	10	-0,000900853309	0,000312379649
2	1	0	0	0	7096,43	3,44223404	3,44265056	0,10129965748637891	10	-0,000299645937	0,000348739326
2	1	0	0	0	7102,58	3,50373864	3,50418115	0,11155894177500114	10	0,000356462464	0,000390922738
2	1	0	0	0	7108,73	3,56524348	3,5657618	0,12360220088157803	10	0,0010800719	0,00044073601
2	1	0	1	0	7114,88	3,62674809	3,62721229	0,13692763106276518	10	0,00188325252	0,000496665598
2	1	0	1	0	7121,03	3,68825293	3,6887629	0,14854215283412419	10	0,0027643377	0,000547936768
2	1	0	1	0	7127,18	3,74975753	3,75027347	0,15864254937817667	10	0,0037115016	0,000594952959
2	1	0	0	0	7133,33	3,81126213	3,81173372	0,16994006877454598	10	0,00472336356	0,000647766283
2	1	0	0	0	7139,48	3,87276697	3,87330461	0,1832334536205351	10	0,00580929173	0,000709718966
2	1	0	0	0	7145,63	3,93427157	3,93460464	0,19889462250284829	10	0,00698508741	0,000782571733
2	1	0	1	0	7151,78	3,99577641	3,99644589	0,21528726032314173	10	0,00826171413	0,000860383909
2	1	0	1	0	7157,93	4,05728102	4,05803633	0,22918343699226762	10	0,00963273738	0,00093003473
2	1	0	0	0	7164,08	4,11878633	4,11937714	0,23852037450745379	10	0,0110756727	0,000982555328
2	1	0	0	0	7170,23	4,18029022	4,18083668	0,2494951974755768	10	0,0125738392	0,00104309863
2	0	0	1	1	7176,33	4,15868902	4,15921402	0,098672609310597184	10	0,0136939287	0,000410400506
2	0	0	1	1	7182,52	4,09678364	4,09726238	0,040596893804225376	10	0,0140906563	0,000166336133
2	0	0	0	1	7188,67	4,03527927	4,03575182	0,016782231284499459	10	0,014257065	6,77289208E-005
2	0	0	0	1	7194,87	3,97337437	3,97395062	0,0027434466598303258	10	0,0143126743	1,09023213E-005
2	0	0	0	1	7201,02	3,91186976	3,91255045	-0,0058708108772407424	10	0,0143007422	2,29698435E-005
2	0	0	1	1	7207,21	3,84996486	3,85044885	-0,011214238290752605	10	0,0142449988	4,31798508E-005
2	0	0	1	1	7213,36	3,78846025	3,78886795	-0,015335143844519478	10	0,0141608007	5,81028362E-005
2	0	0	0	1	7219,51	3,72695565	3,72744703	-0,017830669508482778	10	0,0140569666	6,64628751E-005
2	0	0	0	1	7225,66	3,66545081	3,66583681	-0,020168505895223149	10	0,0139380908	7,39344541E-005
2	0	0	0	1	7231,81	3,60394621	3,60440636	-0,021960996561877776	10	0,0138067165	7,9156358E-005
2	0	0	1	1	7237,96	3,54244113	3,54301667	-0,023144706679054605	10	0,0136654517	8,20020796E-005
2	0	0	1	1	7244,11	3,48093677	3,48134518	-0,024493821780197322	10	0,0135168703	8,52714511E-005
2	0	0	1	1	7250,26	3,41943192	3,41993475	-0,025252871797420083	10	0,0133624505	8,63631722E-005
2	0	0	0	1	7256,41	3,35792732	3,35828424	-0,026316429100309792	10	0,0132024568	8,83780522E-005
2	0	0	0	1	7262,56	3,29642296	3,29657292	-0,027099639216127504	10	0,013036754	8,93359393E-005
2	0	0	0	1	7268,71	3,23491788	3,23547363	-0,027978693135082832	10	0,0128654633	9,05243214E-005
2	0	0	1	1	7274,86	3,17341328	3,1736424	-0,028835516180455046	10	0,012689054	9,15136188E-005
2	0	0	1	1	7281,01	3,11190891	3,11245275	-0,029387861499950944	10	0,0125083337	9,14683333E-005
2	0	0	1	1	7287,16	3,05040407	3,05082202	-0,029957707583283424	10	0,0123241693	9,13956319E-005
2	0	0	0	1	7293,31	2,98889947	2,98916101	-0,030118028866127245	10	0,0121377185	9,00276355E-005
2	0	0	0	1	7299,46	2,92739463	2,92797136	-0,03035616852381888	10	0,0119499369	8,88819923E-005
2	0	0	0	1	7305,61	2,86589003	2,86626029	-0,03038199040262647	10	0,0117615331	8,70826916E-005
2	0	0	1	1	7311,76	2,80438542	2,80470967	-0,030454030697001146	10	0,0115729701	8,54147147E-005
2	0	0	1	1	7317,91	2,74288058	2,74334955	-0,030434061278356237	10	0,0113844015	8,34912717E-005
2	0	0	1	1	7324,07	2,6813755	2,68201995	-0,03056142887474983	10	0,0111954371	8,19663619E-005
2	0	0	0	1	7330,22	2,61987114	2,62020826	-0,030918938340619264	10	0,0110049443	8,10140555E-005
2	0	0	0	1	7336,37	2,55836654	2,55882788	-0,031646554562030362	10	0,0108109945	8,09780831E-005
2	0	0	1	1	7342,52	2,4968617	2,49734735	-0,032745156068510138	10	0,0106113991	8,17760301E-005
2	0	0	1	1	7348,67	2,43535709	2,43605733	-0,034093485126504563	10	0,0104041649	8,3053681E-005
2	0	0	1	1	7354,82	2,37385225	2,37424612	-0,03577710308794249	10	0,0101879193	8,49436474E-005
2	0	0	0	1	7360,97	2,31234765	2,31289601	-0,03730596589351383	10	0,0099617606	8,62848174E-005
2	0	0	0	1	7367,12	2,25084305	2,25150585	-0,039024185864642957	10	0,00972501561	8,78631836E-005
2	0	0	0	1	7373,27	2,18933821	2,18976474	-0,040974306961288621	10	0,00947719347	8,97240898E-005
2	0	0	1	1	7379,42	2,1278336	2,12817407	-0,042921053973259514	10	0,00921765063	9,13434706E-005
2	0	0	1	1	7380,92	2,11273289	2,11317778	-0,044006446376442912	10	0,00915244315	9,29934467E-005