File: Experimentelles/Rohdaten/Batterietests/AlteZelle/Studenten_Batterietests/LLTO_LP30_Li CV/ZView-Export/LLTO_LP30_Li_02_CV_C01_loop0.txt
EC-Lab ASCII FILE
Nb header lines : 3
mode	ox/red	error	control changes	counter inc.	time/s	control/V	Ewe/V	<I>/mA	cycle number	(Q-Qo)/C	P/W
2	0	0	1	0	600,06	2,10843253	2,10868692	-0,0013518956257030366	1	0	2,85072474E-006
2	0	0	0	0	606,83	2,04072666	2,04128122	-0,016226041872869232	1	-0,000103733924	3,31219162E-005
2	0	0	0	0	613,58	1,97322154	1,97361577	-0,017667431175747693	1	-0,000219369686	3,48687208E-005
2	0	0	1	0	620,33	1,90571654	1,90622079	-0,019713000151871997	1	-0,00034689426	3,75773307E-005
2	0	0	0	0	627,08	1,8382113	1,83881593	-0,022710646711251171	1	-0,000491365499	4,17607007E-005
2	0	0	0	0	633,83	1,77070618	1,77127063	-0,027625399331251853	1	-0,00066180079	4,89320591E-005
2	0	0	1	0	640,58	1,70320094	1,7037853	-0,034826539747882662	1	-0,000872272009	5,93369477E-005
2	0	0	1	0	647,33	1,6356957	1,63622022	-0,044146759852689568	1	-0,001140301	7,22338227E-005
2	0	0	0	0	654,08	1,56819069	1,5684042	-0,059111168064797875	1	-0,00148475647	9,2710201E-005
2	0	0	1	0	660,88	1,50028563	1,50082898	-0,10553188237827315	1	-0,0020131967	0,000158385301
2	0	0	1	0	667,63	1,43278039	1,4333638	-0,22844741656445011	1	-0,00309573347	0,000327448244
2	0	0	0	0	674,38	1,36527526	1,36573827	-0,40898747959484627	1	-0,00523198955	0,000558569853
2	0	0	0	0	681,13	1,29777014	1,29832339	-0,59981484261031066	1	-0,00864347816	0,00077875366
2	0	0	1	0	687,88	1,2302649	1,23088837	-0,78489112419386496	1	-0,0133092273	0,000966113352
2	0	0	1	0	694,63	1,16275978	1,16334307	-0,97801014501601818	1	-0,0192878023	0,00113776128
2	0	0	0	0	701,41	1,09495473	1,09552717	-1,1041340613737685	1	-0,0263922792	0,00120960886
2	0	0	1	0	708,16	1,02744949	1,02795172	-1,161791549374664	1	-0,0340777077	0,00119426567
2	0	0	1	0	714,91	0,959944308	0,9602862	-1,1517255551492198	1	-0,0419314913	0,00110598619
2	0	0	0	0	721,66	0,892439187	0,893051684	-1,0706625245511514	1	-0,0494617783	0,00095615699
2	0	0	0	0	728,41	0,824934006	0,825175643	-1,089740848168736	1	-0,0566004924	0,000899227627
2	0	0	1	0	735,16	0,757428885	0,757740557	-1,3486951502660914	1	-0,064772822	0,00102196098
2	0	0	0	0	741,91	0,689923763	0,690225363	-1,5982262250036035	1	-0,074764505	0,00110313622
2	0	0	0	0	748,66	0,622418582	0,622660041	-1,7828871278713178	1	-0,0862025023	0,00111013255
2	0	0	1	0	755,41	0,554913402	0,555174887	-1,9551572290559632	1	-0,0988134146	0,00108545425
2	1	0	0	0	762,08	0,511810184	0,512239814	-1,9246804981182138	1	-0,112371325	0,000985897961
2	1	0	0	0	768,83	0,579315305	0,579634726	-1,1209820670386126	1	-0,12245971	0,000649760128
2	1	0	1	0	775,58	0,646820426	0,647069752	-0,54533547038833139	1	-0,127991989	0,000352870091
2	1	0	1	0	782,38	0,714725614	0,715246618	-0,094735389711180006	1	-0,130105287	6,7759167E-005
2	1	0	0	0	789,21	0,783030748	0,783413351	0,27802849141880826	1	-0,129440963	0,000217811234
2	1	0	1	0	795,96	0,850535989	0,850958645	0,60095663446312026	1	-0,126452491	0,000511389226
2	1	0	1	0	802,71	0,91804105	0,918543935	0,89552649886657677	1	-0,121384524	0,000822580419
2	1	0	0	0	809,49	0,985846341	0,986169636	1,1663719490170461	1	-0,114375919	0,00115024066
2	1	0	0	0	816,24	1,0533514	1,05376494	1,4153901611765232	1	-0,105651259	0,00149148854
2	1	0	1	0	822,99	1,12085652	1,12111974	1,6031197849661075	1	-0,0953698903	0,00179728924
2	1	0	0	0	829,74	1,18836176	1,18886542	1,5508751018593686	1	-0,0845913291	0,00184378179
2	1	0	0	0	836,49	1,25586689	1,25621033	1,4072864974538461	1	-0,0746130124	0,0017678478
2	1	0	1	0	843,24	1,32337201	1,32359517	1,3509129586939928	1	-0,0653664246	0,00178806181
2	1	0	1	0	849,99	1,39087725	1,39145124	1,3532908375685437	1	-0,0562421978	0,0018830382
2	1	0	0	0	856,74	1,45838225	1,45878601	1,3532762092848571	1	-0,0471054167	0,00197414029
2	1	0	0	0	863,49	1,52588749	1,52649164	1,4227304387216738	1	-0,0377757475	0,00217178604
2	1	0	1	0	870,24	1,59339261	1,59383631	1,4318974092602712	1	-0,0280221533	0,00228221016
2	1	0	0	0	876,99	1,66089773	1,66144192	1,0901193208992482	1	-0,0192675795	0,0018111699
2	1	0	0	0	883,78	1,72880292	1,72927785	0,41543553521235667	1	-0,0140127381	0,000718403491
2	1	0	1	0	890,53	1,79630816	1,79681301	0,1776524285475407	1	-0,0123158032	0,000319208193
2	1	0	1	0	897,28	1,86381316	1,86444867	0,12698946776799869	1	-0,0113058249	0,000236765351
2	1	0	0	0	904,03	1,9313184	1,93177342	0,099224226432852442	1	-0,0105486289	0,00019167873
2	1	0	1	0	910,79	1,998824	1,99918902	0,082769454239652096	1	-0,00993648916	0,000165471778
2	1	0	1	0	917,54	2,06632876	2,06676364	0,072095289302523955	1	-0,00941411313	0,000149003929
2	1	0	0	0	924,29	2,13383365	2,13424873	0,064806825112706522	1	-0,00895139482	0,000138313888
2	1	0	0	0	931,04	2,20133901	2,20214462	0,06003203149884928	1	-0,00852904562	0,000132199217
2	1	0	1	0	937,79	2,26884389	2,26960993	0,056807574757840595	1	-0,0081336787	0,000128931031
2	1	0	1	0	944,54	2,33634925	2,3368144	0,054813789494801203	1	-0,00775620062	0,000128089654
2	1	0	0	0	951,29	2,40385437	2,40429974	0,054092943998208934	1	-0,00738764601	0,000130055647
2	1	0	1	0	958,04	2,47135949	2,47180486	0,054944425433252922	1	-0,00701827975	0,000135811904
2	1	0	1	0	964,79	2,53886485	2,5394001	0,05602534943803511	1	-0,00664147502	0,000142270772
2	1	0	0	0	971,54	2,60636973	2,60686517	0,057541801400172397	1	-0,00625697896	0,000150003718
2	1	0	0	0	978,29	2,67387509	2,67424011	0,059548272188597811	1	-0,00586001063	0,000159246381
2	1	0	1	0	985,04	2,74138021	2,74190593	0,062420504613934554	1	-0,00544600375	0,000171151158
2	1	0	1	0	991,79	2,8088851	2,80924964	0,065261222393527168	1	-0,00501270453	0,000183335069
2	1	0	0	0	998,54	2,8763907	2,8767457	0,068460282927844672	1	-0,00455920491	0,000196942827
2	1	0	1	0	1005,29	2,94389558	2,94424081	0,072009731976625741	1	-0,00408363016	0,000212013998
2	1	0	1	0	1012,04	3,0114007	3,01182604	0,076255560658561536	1	-0,00358214951	0,000229668483
2	1	0	0	0	1018,79	3,07890582	3,07940149	0,081939870064767437	1	-0,00304749911	0,000252325757
2	1	0	0	0	1025,54	3,14641094	3,14694667	0,089227321053234394	1	-0,00246932451	0,000280793611
2	1	0	1	0	1032,29	3,2139163	3,21436167	0,099937522124188608	1	-0,00183115643	0,000321235333
2	1	0	0	0	1039,04	3,28142118	3,28169632	0,11743445399527718	1	-0,0011004	0,000385384221
2	1	0	0	0	1045,80	3,34892631	3,349262	0,14580265692590365	1	-0,000217613284	0,000488331309
2	1	0	1	0	1052,55	3,41643167	3,41675687	0,18958546194092688	1	0,000906762492	0,000647767447
2	1	0	1	0	1059,30	3,48393679	3,48430181	0,24867803851763392	1	0,00238127285	0,000866469345
2	1	0	0	0	1066,05	3,55144215	3,55186749	0,32168529368937018	1	0,00430134125	0,00114258355
2	1	0	1	0	1072,80	3,61894703	3,61948276	0,40605564105393734	1	0,00675526401	0,00146971142
2	1	0	1	0	1079,55	3,68645215	3,68687797	0,4888859555746112	1	0,00978665985	0,00180246285
2	1	0	0	0	1086,30	3,75395751	3,75433302	0,54043424796934093	1	0,0132852402	0,00202897005
2	1	0	0	0	1093,05	3,82146263	3,82201838	0,56232494829843386	1	0,0170186125	0,00214921637
2	1	0	1	0	1099,80	3,88896799	3,88943362	0,57589228094244762	1	0,0208643489	0,00223989482
2	1	0	1	0	1106,55	3,95647287	3,95682859	0,5871019903570409	1	0,0247921702	0,00232306193
2	1	0	0	0	1113,30	4,02397823	4,02451372	0,59859172332411072	1	0,0287966542	0,0024090407
2	1	0	1	0	1120,05	4,09148312	4,09199905	0,60994236947347738	1	0,0328777917	0,0024958835
2	1	0	1	0	1126,80	4,158988	4,159482	0,61543961699377011	1	0,0370213836	0,00255991006
2	0	0	0	1	1133,48	4,17418957	4,17488194	0,42421530497570893	1	0,0408477187	0,00177104876
2	0	0	1	1	1140,23	4,10668421	4,10734653	0,22171600838191808	1	0,0429092869	0,000910664501
2	0	0	1	1	1146,98	4,03917933	4,0396409	0,13575877823556493	1	0,0440799892	0,00054841669
2	0	0	0	1	1153,73	3,97167373	3,97213578	0,0886785085701072	1	0,0448216535	0,000352243078
2	0	0	0	1	1160,48	3,90416884	3,90458059	0,059711437517156173	1	0,045312956	0,000233148123
2	0	0	1	1	1167,28	3,83626366	3,83657432	0,040696686841935501	1	0,0456473418	0,000156135866
2	0	0	0	1	1174,03	3,7687583	3,76904893	0,027826238084041248	1	0,0458745994	0,000104878454
2	0	0	0	1	1180,78	3,70125341	3,70172429	0,017429307612474022	1	0,046025198	6,45184919E-005
2	0	0	1	1	1187,53	3,63374782	3,63408875	0,0074365198161104038	1	0,0461071134	2,7024973E-005
2	0	0	1	1	1194,32	3,56584334	3,56623268	-0,0014164527259102507	1	0,0461249799	5,05139997E-006
2	0	0	0	1	1201,07	3,49833775	3,49887776	-0,0074169100504756698	1	0,0460933857	2,59508615E-005
2	0	0	1	1	1207,86	3,43043232	3,43101311	-0,011472498723155616	1	0,0460272655	3,9362294E-005
2	0	0	1	1	1214,61	3,36292744	3,36335635	-0,014844442024089686	1	0,0459359735	4,99271482E-005
2	0	0	0	1	1221,36	3,29542232	3,29582119	-0,017778746070689523	1	0,0458237901	5,85955677E-005
2	0	0	0	1	1228,11	3,22791743	3,22830582	-0,020486681237040726	1	0,0456934199	6,61372687E-005
2	0	0	1	1	1234,86	3,16041183	3,16079068	-0,022715909954664938	1	0,045546107	7,18002339E-005
2	0	0	1	1	1241,61	3,09290695	3,09348607	-0,024528266978450189	1	0,0453844555	7,58778551E-005
2	0	0	0	1	1248,36	3,02540183	3,02582049	-0,026187066677569648	1	0,0452110916	7,92373612E-005
2	0	0	1	1	1255,11	2,95789647	2,9581449	-0,027439397429892099	1	0,0450285152	8,116971E-005
2	0	0	1	1	1261,86	2,89039183	2,89088035	-0,028132877836469562	1	0,0448388271	8,13287843E-005
2	0	0	0	1	1268,61	2,82288647	2,8234148	-0,028857430113324282	1	0,0446439907	8,14764935E-005
2	0	0	0	1	1275,36	2,75538135	2,75600028	-0,029210173563721299	1	0,0444458053	8,05032469E-005
2	0	0	1	1	1282,11	2,68787622	2,68834448	-0,029472647545238342	1	0,0442456342	7,92326318E-005
2	0	0	0	1	1288,86	2,62037086	2,62080932	-0,029739917003704819	1	0,044044055	7,79426482E-005
2	0	0	0	1	1295,61	2,55286574	2,55309367	-0,030289023551934854	1	0,0438401289	7,73307111E-005
2	0	0	1	1	1302,37	2,48536062	2,48571873	-0,031256622974372819	1	0,0436312817	7,76951711E-005
2	0	0	1	1	1309,12	2,4178555	2,41837406	-0,03259587343200121	1	0,0434143171	7,88290126E-005
2	0	0	0	1	1315,87	2,35035038	2,35081863	-0,034196199179859834	1	0,0431870073	8,03890653E-005
2	0	0	0	1	1322,62	2,28284526	2,2832334	-0,036207771627232435	1	0,0429476239	8,2670791E-005
2	0	0	1	1	1329,37	2,21534014	2,2159183	-0,038264814560534278	1	0,0426949337	8,47917036E-005
2	0	0	0	1	1336,12	2,14783478	2,1481328	-0,040269011224154381	1	0,0424279273	8,65031834E-005
2	0	0	1	1	1340,06	2,10843253	2,10876703	-0,041968170760406387	1	0,0422649756	8,85010959E-005