File: Experimentelles/Rohdaten/Batterietests/AlteZelle/Studenten_Batterietests/LLTO_LP30_Li CV/ZView-Export/LLTO_LP30_Li_02_CV_C01_loop1.txt
EC-Lab ASCII FILE
Nb header lines : 3
mode	ox/red	error	control changes	counter inc.	time/s	control/V	Ewe/V	<I>/mA	cycle number	(Q-Qo)/C	P/W
2	0	0	1	0	1340,20	2,10843253	2,10876703	-0,04892837256193161	2	0	0,000103178536
2	0	0	0	0	1346,98	2,04062676	2,04106069	-0,044369638567635206	2	-0,00029331533	9,05611232E-005
2	0	0	0	0	1353,78	1,97262144	1,97304428	-0,047282167380520435	2	-0,000606466725	9,3289811E-005
2	0	0	1	0	1360,58	1,90461624	1,905038	-0,050479272671509312	2	-0,000940995116	9,61649348E-005
2	0	0	0	0	1367,38	1,83661127	1,83720195	-0,054599216130251648	2	-0,00130005658	0,000100309786
2	0	0	0	0	1374,18	1,76860607	1,7691654	-0,060115104793415859	2	-0,00169093802	0,00010635356
2	0	0	1	0	1380,98	1,70060098	1,70086825	-0,067759540999153152	2	-0,00212586182	0,000115250055
2	0	0	1	0	1387,78	1,63259614	1,63303292	-0,077653805663458368	2	-0,00262151565	0,000126811225
2	0	0	0	0	1394,58	1,56459033	1,56511617	-0,094065188954118694	2	-0,00319954823	0,000147222949
2	0	0	1	0	1401,42	1,49618518	1,4966687	-0,14753907426105206	2	-0,00398989813	0,000220817121
2	0	0	1	0	1408,22	1,42817998	1,42869234	-0,28294525078187328	2	-0,00540910801	0,000404241699
2	0	0	0	0	1415,02	1,36017489	1,36068583	-0,47191960550844755	2	-0,00796526298	0,000642134342
2	0	0	0	0	1421,82	1,29216969	1,29265952	-0,66332873050123456	2	-0,0118355155	0,000857458217
2	0	0	1	0	1428,62	1,22416449	1,22464299	-0,8506301480034999	2	-0,0169684291	0,00104171829
2	0	0	0	0	1435,46	1,15575922	1,15594482	-1,0359968117748704	2	-0,0234573931	0,0011975551
2	0	0	0	0	1442,27	1,08775401	1,08831942	-1,1500618020072579	2	-0,0309349727	0,00125163456
2	0	0	1	0	1449,07	1,01974893	1,02041328	-1,1973277718449645	2	-0,0389546305	0,00122176914
2	0	0	0	0	1455,87	0,951743722	0,952186406	-1,176429252140224	2	-0,0470721312	0,00112017989
2	0	0	0	0	1462,67	0,883738577	0,884119868	-1,0960642412925771	2	-0,0548100807	0,000969052198
2	0	0	1	0	1469,47	0,815733373	0,81616348	-1,1645630551502059	2	-0,0623302869	0,000950473826
2	0	0	1	0	1476,27	0,747728169	0,748056889	-1,4451984496166333	2	-0,0711733848	0,00108109065
2	0	0	0	0	1483,07	0,679722965	0,679839909	-1,6978779683510509	2	-0,0819029212	0,00115428516
2	0	0	1	0	1489,87	0,611717761	0,61228466	-1,9014874106893984	2	-0,0941619053	0,00116425159
2	0	0	1	0	1496,67	0,543712556	0,543957472	-2,1022736423959357	2	-0,107770137	0,00114354747
2	1	0	0	0	1503,42	0,523811102	0,524459779	-1,8645133761068138	2	-0,122138239	0,000977862277
2	1	0	1	0	1510,22	0,591816247	0,592115283	-1,069469336730743	2	-0,131946638	0,000633249118
2	1	0	1	0	1517,06	0,660221457	0,660763264	-0,48541689276074496	2	-0,137168303	0,000320745661
2	1	0	0	0	1523,90	0,728626728	0,729050398	-0,03016204903057465	2	-0,13887006	2,19896538E-005
2	1	0	1	0	1530,74	0,797031879	0,797547936	0,34362852456979418	2	-0,137758315	0,000274060207
2	1	0	1	0	1537,54	0,865037084	0,86563462	0,66769672123094554	2	-0,134296909	0,000577981409
2	1	0	0	0	1544,34	0,933042228	0,933640957	0,96153004715839782	2	-0,128738388	0,000897723832
2	1	0	0	0	1551,17	1,00134742	1,00167751	1,2303560112292579	2	-0,121233143	0,00123241998
2	1	0	1	0	1557,97	1,06935263	1,06973398	1,4766013659536829	2	-0,112016171	0,0015795707
2	1	0	0	0	1564,78	1,13735783	1,13763011	1,6336657479405331	2	-0,101315387	0,00185850728
2	1	0	0	0	1571,58	1,20536292	1,20590711	1,5457721855491382	2	-0,0903945342	0,00186405762
2	1	0	1	0	1578,38	1,27336812	1,27371311	1,4021178750942074	2	-0,0803932995	0,0017858959
2	1	0	1	0	1585,18	1,34137356	1,34173954	1,359682419647779	2	-0,071056366	0,00182433962
2	1	0	0	0	1591,98	1,40937865	1,4098562	1,3587462911382304	2	-0,0618117042	0,00191563694
2	1	0	1	0	1598,78	1,47738385	1,47783256	1,3636679782842576	2	-0,0525771528	0,00201527285
2	1	0	1	0	1605,58	1,54538906	1,54597926	1,4421940778071712	2	-0,0430472605	0,00222960208
2	1	0	0	0	1612,38	1,61339414	1,61383533	1,385174229741093	2	-0,033260636	0,0022354431
2	1	0	0	0	1619,18	1,68139935	1,68199217	0,94204475947966413	2	-0,0251284949	0,00158451195
2	1	0	1	0	1626,02	1,74980462	1,75024915	0,28516134666278915	2	-0,0210305806	0,000499103393
2	1	0	0	0	1632,82	1,8178097	1,81806505	0,15931391537499952	2	-0,0196467675	0,000289643067
2	1	0	0	0	1639,62	1,88581491	1,88633215	0,11768198281060906	2	-0,0187183898	0,000221987313
2	1	0	1	0	1646,42	1,95382011	1,95421815	0,094702386491310912	2	-0,018001616	0,000185069119
2	1	0	1	0	1653,22	2,02182531	2,02246523	0,081042216431038822	2	-0,0174054448	0,000163905061
2	1	0	0	0	1660,02	2,0898304	2,09039116	0,072155104736642214	2	-0,0168843027	0,000150832391
2	1	0	1	0	1666,82	2,15783572	2,15824723	0,066177330833549286	2	-0,0164136663	0,000142827048
2	1	0	1	0	1673,62	2,22584081	2,2263341	0,062295729837690496	2	-0,0159753226	0,000138691103
2	1	0	0	0	1680,42	2,29384613	2,29427028	0,060258392981874522	2	-0,0155568402	0,000138249045
2	1	0	0	0	1687,22	2,36185122	2,36234713	0,059776885493192819	2	-0,0151471123	0,00014121375
2	1	0	1	0	1694,03	2,42985654	2,43026304	0,05974783641674231	2	-0,0147397108	0,000145202954
2	1	0	0	0	1700,83	2,49786162	2,49833965	0,061334480803149517	2	-0,014326225	0,000153234359
2	1	0	0	0	1707,63	2,56586671	2,56609535	0,06276908736132736	2	-0,0139025841	0,000161071468
2	1	0	1	0	1714,43	2,63387203	2,63443255	0,065083490374187699	2	-0,0134662604	0,000171458072
2	1	0	1	0	1721,23	2,70187712	2,70224881	0,06773572663466121	2	-0,0130129121	0,000183038792
2	1	0	0	0	1728,03	2,76988244	2,77048564	0,071053647843655091	2	-0,0125391381	0,000196853114
2	1	0	1	0	1734,83	2,83788753	2,83842182	0,07441765038917472	2	-0,012042677	0,000211228689
2	1	0	1	0	1741,63	2,90589285	2,90634823	0,078435132900873677	2	-0,011521033	0,000227959812
2	1	0	0	0	1748,43	2,97389793	2,97440457	0,082883863438231283	2	-0,0109708449	0,000246530137
2	1	0	0	0	1755,23	3,04190373	3,04253221	0,088546429675992794	2	-0,0103866486	0,000269405369
2	1	0	1	0	1762,03	3,10990834	3,11052799	0,095272863380766016	2	-0,00975985639	0,00029634891
2	1	0	0	0	1768,83	3,17791343	3,17847371	0,104048307597016	2	-0,00908110198	0,0003307148
2	1	0	0	0	1775,63	3,24591875	3,24646997	0,11546091362833954	2	-0,00833508559	0,000374840398
2	1	0	1	0	1782,43	3,31392384	3,31435633	0,13213509119426158	2	-0,00749420421	0,00043794277
2	1	0	0	0	1789,23	3,3819294	3,38244343	0,15629665388365322	2	-0,00651513692	0,000528664561
2	1	0	0	0	1796,03	3,44993424	3,45030904	0,18810200345857696	2	-0,00534532312	0,000649010064
2	1	0	1	0	1802,83	3,51793933	3,51838565	0,22524032834917264	2	-0,00394162722	0,000792482344
2	1	0	1	0	1809,63	3,58594465	3,58654261	0,27005946170538662	2	-0,00225960766	0,000968579785
2	1	0	0	0	1816,43	3,65394974	3,65446877	0,31855318935898413	2	-0,000253558363	0,00116414274
2	1	0	1	0	1823,24	3,72195601	3,72263622	0,34996816350142266	2	0,00203654915	0,00130280422
2	1	0	1	0	1830,04	3,78996015	3,79046106	0,36429737073679738	2	0,0044705933	0,00138085498
2	1	0	0	0	1836,84	3,85796523	3,85840774	0,37769380638686291	2	0,00699495897	0,00145729666
2	1	0	0	0	1843,64	3,92597055	3,92638397	0,39273099352915962	2	0,00961530302	0,00154201267
2	1	0	1	0	1850,44	3,99397564	3,99469137	0,41079243272542867	2	0,0123484703	0,00164098898
2	1	0	1	0	1857,24	4,06197977	4,06253481	0,43020831106451942	2	0,0152097009	0,00174773624
2	1	0	0	0	1864,04	4,12998581	4,13036346	0,4451612960547191	2	0,0181946345	0,00183867791
2	1	0	1	0	1870,84	4,19799137	4,19848967	0,45614032059287002	2	0,0212581754	0,00191510038
2	0	0	0	1	1877,57	4,13468599	4,13529348	0,18660589728456877	2	0,0231962353	0,000771670137
2	0	0	0	1	1884,37	4,06668139	4,06733894	0,10255159453178461	2	0,0241372958	0,000417112082
2	0	0	1	1	1891,17	3,9986763	3,99924207	0,06111163028981536	2	0,0246779528	0,000244400202
2	0	0	1	1	1898,01	3,93027091	3,9306345	0,036367496941238528	2	0,0250024833	0,000142947334
2	0	0	0	1	1904,81	3,86226583	3,8626883	0,021007343699845082	2	0,0251916945	8,1144819E-005
2	0	0	1	1	1911,61	3,7942605	3,79467154	0,01086370429887512	2	0,0252957661	4,12241898E-005
2	0	0	1	1	1918,45	3,72585487	3,72641492	0,0033127579517895347	2	0,0253422353	1,23447107E-005
2	0	0	0	1	1925,25	3,65785003	3,65825796	-0,0029183197687719482	2	0,0253425092	1,06759662E-005
2	0	0	0	1	1932,05	3,5898447	3,59047198	-0,0089914041430650957	2	0,0253007505	3,22833839E-005
2	0	0	1	1	1938,89	3,52143979	3,52210474	-0,013051814069816202	2	0,0252236854	4,59698567E-005
2	0	0	0	1	1945,69	3,45343447	3,45386767	-0,01604449247436912	2	0,0251219738	5,54155522E-005
2	0	0	0	1	1952,50	3,38542938	3,38577104	-0,018721332860877786	2	0,0250013061	6,33861491E-005
2	0	0	1	1	1959,30	3,31742406	3,317765	-0,02104250563328	2	0,0248644371	6,98140866E-005
2	0	0	1	1	1966,10	3,24941874	3,24992871	-0,022985229317176464	2	0,0247128457	7,47003578E-005
2	0	0	0	1	1972,90	3,18141389	3,18190217	-0,024901516638540947	2	0,024547819	7,92341889E-005
2	0	0	1	1	1979,70	3,11340857	3,11386585	-0,026491039306468566	2	0,0243709125	8,24895396E-005
2	0	0	1	1	1986,50	3,04540348	3,04569912	-0,02782698434505937	2	0,0241842996	8,47526244E-005
2	0	0	0	1	1993,30	2,9773984	2,97771263	-0,028684443784489645	2	0,0239902977	8,54140308E-005
2	0	0	0	1	2000,10	2,90939379	2,91002798	-0,029249565181123424	2	0,0237905942	8,51170553E-005
2	0	0	1	1	2006,90	2,84138799	2,84184003	-0,029941249910431597	2	0,0235868897	8,50882425E-005
2	0	0	0	1	2013,70	2,77338266	2,77390385	-0,030147409532219392	2	0,0233807154	8,36260151E-005
2	0	0	0	1	2020,50	2,70537758	2,70584726	-0,030310970255717165	2	0,0231731478	8,2016857E-005
2	0	0	1	1	2027,30	2,63737226	2,63783121	-0,030546110841290438	2	0,0229645818	8,05754826E-005
2	0	0	1	1	2034,10	2,56936789	2,56991625	-0,03093310031675456	2	0,0227539279	7,94954758E-005
2	0	0	0	1	2040,90	2,50136185	2,50182819	-0,031993460045972147	2	0,0225383975	8,00421403E-005
2	0	0	1	1	2047,70	2,433357	2,43382192	-0,033372521254932301	2	0,0223148335	8,12227736E-005
2	0	0	1	1	2054,50	2,36535144	2,36577511	-0,034897814427191974	2	0,0220806524	8,25603784E-005
2	0	0	0	1	2061,30	2,29734635	2,29784918	-0,036942999082384634	2	0,0218342543	8,48894415E-005
2	0	0	1	1	2068,10	2,22934055	2,2297318	-0,038992285057474374	2	0,0215744805	8,69423384E-005
2	0	0	1	1	2074,90	2,16133595	2,16174603	-0,041061732869517549	2	0,0213004276	8,87650385E-005
2	0	0	1	1	2080,16	2,10873246	2,10964918	-0,043521298095583917	2	0,0210782457	9,18146688E-005