File: Experimentelles/Rohdaten/Batterietests/AlteZelle/Studenten_Batterietests/LiCoO2 vs Li 300µm GCPL/ECLab-Export/LiCoO2 vs Li 300µm GCPL_02_GCPL_C04_loop10.mpt
EC-Lab ASCII FILE
Nb header lines : 3
mode	ox/red	error	control changes	Ns changes	counter inc.	Ns	time/s	control/V/mA	Ewe/V	dq/mA.h	<I>/mA	P/W	(Q-Qo)/mA.h	x	Capacity/mA.h
1	0	0	1	1	0	1	104770,74	-0,300000012	4,18331718	0	0	0	0	0	0
1	0	0	1	0	0	1	104860,74	-0,300000012	3,9709909	-0,000832902240741584	-0,29983888066764339	0,00119065749	-0,0074920474672435366	0,00027953836416780922	0,0074920474672435366
1	0	0	1	0	0	1	104950,74	-0,300000012	3,91957831	-0,0008329034434060256	-0,29983931321338528	0,00117524364	-0,014988156581652026	0,0005592282738522855	0,014988156581652026
1	0	0	1	0	0	1	105040,74	-0,300000012	3,88018441	-0,00083292711742387866	-0,29984783680487059	0,00116346485	-0,022484388940726915	0,00083892278196096922	0,022484388940726915
1	0	0	1	0	0	1	105130,74	-0,300000012	3,84527373	-0,00083291727975342016	-0,29984429524367942	0,0011529834	-0,02998062555525223	0,0011186174488462301	0,02998062555525223
1	0	0	1	0	0	1	105220,74	-0,300000012	3,81841326	-0,00083291335175103616	-0,29984288014708755	0,00114492408	-0,037476838201089235	0,0013983112214275037	0,037476838201089235
1	0	0	1	0	0	1	105310,75	-0,300000012	3,79246855	-0,00083290576711131469	-0,29984015031716429	0,00113713439	-0,044973070073864723	0,001678005711391703	0,044973070073864723
1	0	0	1	0	0	1	105400,75	-0,300000012	3,76877499	-0,00083292218245731456	-0,2998460602555056	0,00113005238	-0,052469318047570054	0,0019577008021032429	0,052469318047570054
1	0	0	1	0	0	1	105490,75	-0,300000012	3,74536777	-0,00083291822415424717	-0,29984463417452026	0,00112302846	-0,059965589772520986	0,0022373967790056899	0,059965589772520986
1	0	0	1	0	0	1	105580,75	-0,300000012	3,72165513	-0,00083290380887521638	-0,29983944477620294	0,00111589895	-0,067461806532033792	0,0025170907050737386	0,067461806532033792
1	0	0	1	0	0	1	105670,75	-0,300000012	3,69674063	-0,00083290432909462182	-0,29983963317194554	0,00110842939	-0,074958003061897395	0,0027967838763463766	0,074958003061897395
1	0	0	1	0	0	1	105760,76	-0,300000012	3,6707387	-0,00083291839507553318	-0,2998446962944393	0,00110065157	-0,082454273684188902	0,0030764798121071181	0,082454273684188902
1	0	0	1	0	0	1	105850,76	-0,300000012	3,64208508	-0,00083292604024377126	-0,2998474479106983	0,0010920699	-0,089950502201820608	0,003356174176886391	0,089950502201820608
1	0	0	1	0	0	1	105940,76	-0,300000012	3,61091328	-0,00083291819110016026	-0,29984462332202246	0,0010827129	-0,09744670143295511	0,003635867448947079	0,09744670143295511
1	0	0	1	0	0	1	106030,76	-0,300000012	3,57623148	-0,00083290442508624653	-0,29983966772824749	0,00107229606	-0,10494291304786686	0,003915561183063145	0,10494291304786686
1	0	0	1	0	0	1	106120,76	-0,300000012	3,53744793	-0,00083290564794838426	-0,29984010683294829	0,00106066873	-0,11243907464175771	0,0041952530508276672	0,11243907464175771
1	0	0	1	0	0	1	106210,76	-0,300000012	3,49164414	-0,00083291508303913805	-0,29984350379990086	0,00104694685	-0,11993538822425587	0,004474950589491479	0,11993538822425587
1	0	0	1	0	0	1	106300,77	-0,300000012	3,43889642	-0,00083291248890426419	-0,29984257064231341	0,00103112753	-0,1274316405317967	0,0047546458419042483	0,1274316405317967
1	0	0	1	0	0	1	106390,77	-0,300000012	3,37811732	-0,00083291289516952307	-0,29984271591712339	0,00101290387	-0,13492782398645922	0,0050343385253235539	0,13492782398645922
1	0	0	1	0	0	1	106480,77	-0,300000012	3,31199646	-0,00083291669342418509	-0,2998440831256439	0,000993082533	-0,14242403051245725	0,005314032069565408	0,14242403051245725
1	0	0	1	0	0	1	106570,77	-0,300000012	3,243186	-0,00083291636599103603	-0,29984396636902381	0,00097244978	-0,14992026152165747	0,0055937265273084525	0,14992026152165747
1	0	0	1	0	0	1	106660,77	-0,300000012	3,17099881	-0,00083292054805656269	-0,29984547153380294	0,000950809626	-0,15741657423165126	0,0058734240334179533	0,15741657423165126
1	0	0	1	0	0	1	106750,77	-0,300000012	3,09221101	-0,00083291499083737523	-0,29984347020301632	0,000927179295	-0,16491281412146339	0,0061531188225085696	0,16491281412146339
1	0	0	1	0	0	1	106840,78	-0,300000012	2,99776101	-0,00083290442840092698	-0,29983966867019117	0,000898847647	-0,17240904999712787	0,0064328134618259379	0,17240904999712787
1	0	0	1	0	0	1	106930,78	-0,300000012	2,87997985	-0,00083291234439114726	-0,2998425186216736	0,000863540394	-0,17990522881762035	0,0067125059723381299	0,17990522881762035
1	0	0	1	0	0	1	107020,78	-0,300000012	2,73064542	-0,00083292437073257229	-0,29984684689854592	0,000818775443	-0,18740142607365235	0,0069921991707050867	0,18740142607365235
1	0	0	1	0	0	1	107110,78	-0,300000012	2,54773569	-0,0008329183234754537	-0,29984467013931923	0,000763924967	-0,19489768834281981	0,0072718947947995392	0,19489768834281981
1	0	0	1	0	0	1	107200,78	-0,300000012	2,34418464	-0,00083292882670793267	-0,29984845213846074	0,000702900114	-0,20239397333950653	0,0075515912668882931	0,20239397333950653
1	0	0	1	0	0	1	107290,79	-0,300000012	2,13636017	-0,00083292368237177536	-0,29984659941120198	0,000640580314	-0,20989034536550634	0,007831290986157728	0,20989034536550634
1	1	0	0	0	0	2	107370,75	0,300000012	2,98158836	0,00083387290478414963	0,30018831309637568	0,000895037956	-0,21321658160818474	0,0079553973325442522	0,0016677590370840499
1	1	0	0	0	0	2	107460,75	0,300000012	3,95911074	0,00083387028569976486	0,30018737068494675	0,00118847506	-0,20571179130523098	0,0076753835160431706	0,0091725493400378368
1	1	0	0	0	0	2	107550,75	0,300000012	3,98593283	0,00083386727606256794	0,30018628610822387	0,00119652238	-0,19820704619949914	0,0073953713859112051	0,016677294445769658
1	1	0	0	0	0	2	107640,75	0,300000012	4,00149965	0,00083385568131340877	0,30018211213781331	0,00120117865	-0,19070235881003923	0,0071153614092509478	0,02418198183522953
1	1	0	0	0	0	2	107730,75	0,300000012	4,01523495	0,0008338567551010185	0,30018249975866598	0,00120530324	-0,18319763096206736	0,0068353499230292109	0,031686709683201376
1	1	0	0	0	0	2	107820,75	0,300000012	4,027349	0,00083385099201732211	0,30018042446052563	0,00120893132	-0,17569295500947226	0,0065553403730937549	0,039191385635796525
1	1	0	0	0	0	2	107910,76	0,300000012	4,03765059	0,00083386260603202714	0,30018460493045818	0,00121204054	-0,16818824835613226	0,0062753296776722291	0,046696092289136531
1	1	0	0	0	0	2	108000,76	0,300000012	4,04749441	0,00083385556157926707	0,30018207009626854	0,00121498527	-0,16068348120505958	0,0059953167249989594	0,054200859440209152
1	1	0	0	0	0	2	108090,76	0,300000012	4,05762434	0,000833867305793696	0,30018629792947744	0,00121804327	-0,15317872434810982	0,005715304156413255	0,06170561629715895
1	1	0	0	0	0	2	108180,76	0,300000012	4,067945	0,00083385845171080691	0,30018310940787296	0,00122112839	-0,14567392437964202	0,0054352899792788486	0,069210416265626765
1	1	0	0	0	0	2	108270,76	0,300000012	4,07786465	0,00083387247169845632	0,30018815700688902	0,00122412667	-0,13816911816007088	0,0051552755689073709	0,076715222485197926
1	1	0	0	0	0	2	108360,76	0,300000012	4,08437014	0,00083386543351742963	0,30018562392334093	0,00122606917	-0,1306643355755113	0,0048752620403899526	0,084220005069757517
1	1	0	0	0	0	2	108450,77	0,300000012	4,0918293	0,00083386487868593805	0,30018542311337722	0,00122830749	-0,12315953130414448	0,0045952477027085984	0,091724809341124378
1	1	0	0	0	0	2	108540,77	0,300000012	4,09694195	0,00083386953682535232	0,30018709997023462	0,00122984918	-0,11565472170083584	0,0043152331660853261	0,099229618944433011
1	1	0	0	0	0	2	108630,77	0,300000012	4,10930347	0,000833867811176512	0,30018647986719046	0,00123355736	-0,10814990134188891	0,0040352182281547277	0,10673443930337994
1	1	0	0	0	0	2	108720,77	0,300000012	4,11573267	0,00083386857851015194	0,30018675565104314	0,00123548845	-0,10064507939414872	0,0037552032309441165	0,11423926125112011
1	1	0	0	0	0	2	108810,77	0,300000012	4,12330627	0,00083388057638870349	0,30019107413099597	0,00123777974	-0,093140228305757299	0,0034751871464566278	0,12174411233951155
1	1	0	0	0	0	2	108900,78	0,300000012	4,13112783	0,00083386783784793485	0,30018648931145766	0,00124010874	-0,08563538361918953	0,0031951713008297869	0,12924895702607936
1	1	0	0	0	0	2	108990,78	0,300000012	4,1398077	0,00083385849321219661	0,30018312546632506	0,00124270038	-0,078130631023665523	0,002915158891243607	0,13675370962160333
1	1	0	0	0	0	2	109080,78	0,300000012	4,14787722	0,0008338483154475689	0,30017946042523053	0,0012451075	-0,07062594972911831	0,0026351491419927363	0,14425839091615046
1	1	0	0	0	0	2	109170,78	0,300000012	4,15621376	0,00083384561528265485	0,30017848870307072	0,00124760601	-0,06312131169386231	0,0023551410068041834	0,15176302895140646
1	1	0	0	0	0	2	109260,78	0,300000012	4,16281462	0,00083384971905085773	0,30017996682716826	0,00124959357	-0,055616679683781568	0,0020751330964230202	0,15926766096148723
1	1	0	0	0	0	2	109350,78	0,300000012	4,16930056	0,00083384633250700109	0,30017874680438157	0,00125153537	-0,048112053662513933	0,0017951254094925264	0,16677228698275488
1	1	0	0	0	0	2	109440,79	0,300000012	4,17590141	0,00083383044698834432	0,30017302790705024	0,00125349301	-0,040607557472345139	0,0015151225667348896	0,17427678317292365
1	1	0	0	0	0	2	109530,79	0,300000012	4,18191051	0,00083383839195470003	0,3001758891531328	0,00125530874	-0,033103048042373766	0,0012351192299824179	0,18178129260289501
1	1	0	0	0	0	2	109620,79	0,300000012	4,18923616	0,00083384893582595725	0,30017968460619526	0,00125752355	-0,025598486731845715	0,00095511395749662221	0,18928585391342304
1	1	0	0	0	0	2	109710,79	0,300000012	4,19343281	0,00083386124289532506	0,30018411421443917	0,0012588019	-0,018093824431358355	0,00067510491693966221	0,1967905162139104
1	1	0	0	0	0	2	109800,79	0,300000012	4,19648504	0,00083386880768835546	0,30018683826888653	0,00125972962	-0,010589026914419645	0,00039509083127510202	0,20429531373084909
1	1	0	0	0	0	2	109850,66	0,300000012	4,1999526	0,00082290848093397094	0,30018555829618234	0,00126076513	-0,0064307034158344883	0,00023993819061748365	0,20845363722943424