File: Experimentelles/Rohdaten/Batterietests/AlteZelle/Studenten_Batterietests/LiCoO2 vs Li 300µm GCPL/ECLab-Export/LiCoO2 vs Li 300µm GCPL_01_OCV_C04_loop0.mpt
EC-Lab ASCII FILE
Nb header lines : 3
mode	error	time/s	Ewe/V
3	1	0,00	2,82233405
3	0	15,00	2,82124662
3	0	30,00	2,82174277
3	0	45,00	2,82916355
3	0	60,00	2,82607317
3	0	75,00	2,82563448
3	0	90,00	2,82828617
3	0	105,00	2,83244491
3	0	120,00	2,8396368
3	0	135,00	2,84068608
3	0	150,00	2,84011388
3	0	165,00	2,84198332
3	0	180,00	2,84030461
3	0	195,00	2,84234571
3	0	210,00	2,84591317
3	0	225,00	2,84104848
3	0	240,00	2,84308982
3	0	255,00	2,84402466
3	0	270,00	2,84881282
3	0	285,00	2,85104489
3	0	300,00	2,84866023
3	0	315,00	2,84860301
3	0	330,00	2,84740114
3	0	345,00	2,84619927
3	0	360,00	2,84612298
3	0	375,00	2,84616113
3	0	390,00	2,8455317
3	0	405,00	2,84738207
3	0	420,00	2,8487556
3	0	435,00	2,84850764
3	0	450,00	2,84713411
3	0	465,00	2,84352851
3	0	480,00	2,84276557
3	0	495,00	2,84301353
3	0	510,00	2,83658457
3	0	525,00	2,83816791
3	0	540,00	2,8368516
3	0	555,00	2,83835864
3	0	570,00	2,84038091
3	0	585,00	2,84167814
3	0	600,00	2,83635569
3	0	615,00	2,83616495
3	0	630,00	2,83507752
3	0	645,00	2,83431435
3	0	660,00	2,82620668
3	0	675,00	2,82550073
3	0	690,00	2,82876301
3	0	705,00	2,82574892
3	0	720,00	2,82761836
3	0	735,00	2,82717967
3	0	750,00	2,82582521
3	0	765,00	2,82193351
3	0	780,00	2,82168555
3	0	795,00	2,82124662
3	0	810,00	2,82014012
3	0	825,00	2,81949162
3	0	840,00	2,82042646
3	0	855,00	2,82197165
3	0	870,00	2,81783199
3	0	885,00	2,81523752
3	0	900,00	2,81479859
3	0	915,00	2,81516123
3	0	930,00	2,82372665
3	0	945,00	2,82933521
3	0	960,00	2,83227324
3	0	975,00	2,8360312
3	0	990,00	2,83622217
3	0	1005,00	2,8367753
3	0	1020,00	2,83540177
3	0	1035,00	2,83629847
3	0	1050,00	2,83639383
3	0	1065,00	2,83732843
3	0	1080,00	2,8375957
3	0	1095,00	2,83564973
3	0	1110,00	2,8209796
3	0	1125,00	2,82141829
3	0	1140,00	2,8212657
3	0	1155,00	2,82164741
3	0	1170,00	2,81815624
3	0	1185,00	2,81764102
3	0	1200,00	2,81746936
3	0	1215,00	2,81903386
3	0	1230,00	2,82441354
3	0	1245,00	2,82162809
3	0	1260,00	2,82105589
3	0	1275,00	2,81783199
3	0	1290,00	2,81672549
3	0	1305,00	2,81456971
3	0	1320,00	2,81428361
3	0	1335,00	2,81123137
3	0	1350,00	2,81455064
3	0	1365,00	2,81418824
3	0	1380,00	2,81397843
3	0	1395,00	2,8154664
3	0	1410,00	2,81418824
3	0	1425,00	2,81252861
3	0	1440,00	2,81264305
3	0	1455,00	2,8183279
3	0	1470,00	2,82309723
3	0	1485,00	2,8270843
3	0	1500,00	2,82620668
3	0	1515,00	2,82382202
3	0	1530,00	2,82382202
3	0	1545,00	2,81941533
3	0	1560,00	2,81725955
3	0	1575,00	2,81790829
3	0	1590,00	2,81672549
3	0	1605,00	2,81645846
3	0	1620,00	2,81746936
3	0	1635,00	2,81565714
3	0	1650,00	2,81624842
3	0	1665,00	2,81424546
3	0	1680,00	2,81035376
3	0	1695,00	2,81043005
3	0	1710,00	2,81027746
3	0	1725,00	2,8112886
3	0	1740,00	2,812433
3	0	1755,00	2,81327248
3	0	1770,00	2,82162809
3	0	1785,00	2,82313538
3	0	1800,00	2,82792354
3	0	1815,00	2,83128119
3	0	1830,00	2,83097601
3	0	1845,00	2,83475304
3	0	1860,00	2,83461952
3	0	1875,00	2,83450508
3	0	1890,00	2,83708048
3	0	1905,00	2,83847308
3	0	1920,00	2,83843493
3	0	1935,00	2,84057164
3	0	1950,00	2,84371924
3	0	1965,00	2,84333777
3	0	1980,00	2,8396368
3	0	1995,00	2,83940792
3	0	2010,00	2,84099126
3	0	2025,00	2,83919811
3	0	2040,00	2,83736658
3	0	2055,00	2,83818698
3	0	2070,00	2,83780551
3	0	2085,00	2,83593583
3	0	2100,00	2,83231139
3	0	2115,00	2,83605027
3	0	2130,00	2,83473396
3	0	2145,00	2,83673716
3	0	2160,00	2,83448601
3	0	2175,00	2,83336043
3	0	2190,00	2,83366585
3	0	2205,00	2,83652735
3	0	2220,00	2,8386066
3	0	2235,00	2,83736658
3	0	2250,00	2,83889294
3	0	2265,00	2,83957958
3	0	2280,00	2,84225035
3	0	2295,00	2,84482574
3	0	2310,00	2,84349036
3	0	2325,00	2,84276557
3	0	2340,00	2,84276557
3	0	2355,00	2,84234571
3	0	2370,00	2,84038091
3	0	2385,00	2,84011388
3	0	2400,00	2,84350944
3	0	2415,00	2,84518814
3	0	2430,00	2,85106397
3	0	2445,00	2,84793544
3	0	2460,00	2,85001469
3	0	2475,00	2,84835505
3	0	2490,00	2,84383368
3	0	2505,00	2,8399992
3	0	2520,00	2,83469582
3	0	2535,00	2,8311286
3	0	2550,00	2,83057523
3	0	2565,00	2,83229232
3	0	2580,00	2,83631754
3	0	2595,00	2,83568788
3	0	2610,00	2,83368492
3	0	2625,00	2,83523011
3	0	2640,00	2,83572602
3	0	2655,00	2,83658457
3	0	2670,00	2,84095311
3	0	2685,00	2,84377646
3	0	2700,00	2,84358573
3	0	2715,00	2,84431076
3	0	2730,00	2,84366202
3	0	2745,00	2,83799624
3	0	2760,00	2,83683252
3	0	2775,00	2,83460045
3	0	2790,00	2,83406639
3	0	2805,00	2,83425713
3	0	2820,00	2,8379581
3	0	2835,00	2,8317008
3	0	2850,00	2,83120489
3	0	2865,00	2,82922077
3	0	2880,00	2,83189154
3	0	2895,00	2,83086157
3	0	2910,00	2,82870579
3	0	2925,00	2,82939243
3	0	2940,00	2,82746577
3	0	2955,00	2,8271606
3	0	2970,00	2,82834339
3	0	2985,00	2,83351326
3	0	3000,00	2,83419991
3	0	3015,00	2,83175802
3	0	3030,00	2,83357048
3	0	3045,00	2,83255935
3	0	3060,00	2,83139563
3	0	3075,00	2,82931614
3	0	3090,00	2,8292017
3	0	3105,00	2,83049893
3	0	3120,00	2,8310523
3	0	3135,00	2,83204412
3	0	3150,00	2,83366585
3	0	3165,00	2,8346386
3	0	3180,00	2,83618402
3	0	3195,00	2,83475304
3	0	3210,00	2,83751941
3	0	3225,00	2,83452415
3	0	3240,00	2,83330321
3	0	3255,00	2,83246398
3	0	3270,00	2,8311286
3	0	3285,00	2,8310523
3	0	3300,00	2,83160543
3	0	3315,00	2,82979321
3	0	3330,00	2,82803798
3	0	3345,00	2,82532907
3	0	3360,00	2,82706523
3	0	3375,00	2,82792354
3	0	3390,00	2,82723689
3	0	3405,00	2,82641649
3	0	3420,00	2,82567263
3	0	3435,00	2,82656908
3	0	3450,00	2,82693172
3	0	3465,00	2,82557702
3	0	3480,00	2,82351685
3	0	3495,00	2,82176185
3	0	3510,00	2,81880474
3	0	3525,00	2,81903386
3	0	3540,00	2,81630564
3	0	3555,00	2,81605768
3	0	3570,00	2,81647754
3	0	3585,00	2,8155427
3	0	3600,00	2,81485581