File: Experimentelles/Rohdaten/Batterietests/AlteZelle/Studenten_Batterietests/ASS Batterie 03/ECLab-Export/LiNiMnO-LATP-LTO_01_OCV_C01.mpt
EC-Lab ASCII FILE
Nb header lines : 46

Open Circuit Voltage

Run on channel : 1 (SN 6985)
Grouped channel(s) : 1
User :
CE vs. WE compliance from -10 V to 10 V
Electrode connection : standard
Ewe ctrl range : min = -10,00 V, max = 10,00 V
Acquisition started on : 01.29.2015 20:40:39
Saved on :
	File : LiNiMnO-LATP-LTO_01_OCV_C01.mpr
	Directory : C:\Hupfer\Studenten Batterietests\ASS Batterie 03\
	Host : 192.168.0.2
Device : VMP3 (SN 0324)
Address : 192.168.0.1
EC-Lab for windows v10.33 (software)
Internet server v10.33 (firmware)
Command interpretor v10.32 (firmware)
Electrode material :
Initial state :
Electrolyte :
Comments :
Mass of active material : 0,001 mg
 at x = 0,000
Molecular weight of active material (at x = 0) : 0,001 g/mol
Atomic weight of intercalated ion : 0,001 g/mol
Acquisition started at : xo = 0,000
Number of e- transfered per intercalated ion : 1
for DX = 1, DQ = 26,801 mA.h
Battery capacity : 0,000 A.h
Electrode surface area : 0,001 cm²
Characteristic mass : 0,001 g
tR (h:m:s)          0:10:0,0000
dER/dt (mV/h)       0,0
dER (mV)            0,00
dtR (s)             5,0000
E range min (V)     -10,000
E range max (V)     10,000

Number of loops : 1
Loop 0 from point number 0 to 120

mode	error	time/s	Ewe/V
3	0	0,0000	0,0984325483
3	0	5,0000	0,101525925
3	0	10,0000	0,102805279
3	0	15,0000	0,102900758
3	0	20,0000	0,100494802
3	0	25,0000	0,0976878479
3	0	30,0000	0,0963321105
3	0	35,0000	0,095835641
3	0	40,0000	0,0973823294
3	0	45,0000	0,099081777
3	0	50,0000	0,100762129
3	0	55,0000	0,101831444
3	0	60,0000	0,102308817
3	0	65,0000	0,10299623
3	0	70,0000	0,0990053937
3	0	75,0000	0,0965039656
3	0	80,0000	0,0957783535
3	0	85,0000	0,0982606933
3	0	90,0000	0,101946011
3	0	95,0000	0,102919854
3	0	100,0000	0,101144023
3	0	105,0000	0,0970195234
3	0	110,0000	0,0961220637
3	0	115,0000	0,097859703
3	0	120,0000	0,099272728
3	0	125,0000	0,102117866
3	0	130,0000	0,103282653
3	0	135,0000	0,102824375
3	0	140,0000	0,100895792
3	0	145,0000	0,0979360789
3	0	150,0000	0,0968285799
3	0	155,0000	0,0961793512
3	0	160,0000	0,0964084864
3	0	165,0000	0,0984134525
3	0	170,0000	0,10066665
3	0	175,0000	0,10293895
3	0	180,0000	0,103626363
3	0	185,0000	0,10259524
3	0	190,0000	0,10101036
3	0	195,0000	0,0978024155
3	0	200,0000	0,0971340984
3	0	205,0000	0,096274823
3	0	210,0000	0,0965421498
3	0	215,0000	0,0967903882
3	0	220,0000	0,0984325483
3	0	225,0000	0,0989862978
3	0	230,0000	0,10045661
3	0	235,0000	0,100895792
3	0	240,0000	0,102022395
3	0	245,0000	0,102671616
3	0	250,0000	0,103282653
3	0	255,0000	0,103397228
3	0	260,0000	0,103359036
3	0	265,0000	0,103301749
3	0	270,0000	0,104046449
3	0	275,0000	0,104141928
3	0	280,0000	0,103950977
3	0	285,0000	0,104008265
3	0	290,0000	0,102518857
3	0	295,0000	0,101411358
3	0	300,0000	0,0987953544
3	0	305,0000	0,0973441377
3	0	310,0000	0,0966567248
3	0	315,0000	0,0969240516
3	0	320,0000	0,0977642238
3	0	325,0000	0,0991963446
3	0	330,0000	0,0996355265
3	0	335,0000	0,100322947
3	0	340,0000	0,101048551
3	0	345,0000	0,101831444
3	0	350,0000	0,103168085
3	0	355,0000	0,10333994
3	0	360,0000	0,103511795
3	0	365,0000	0,103110798
3	0	370,0000	0,102022395
3	0	375,0000	0,101163119
3	0	380,0000	0,0999028534
3	0	385,0000	0,0998646691
3	0	390,0000	0,099941045
3	0	395,0000	0,0996928141
3	0	400,0000	0,0995782465
3	0	405,0000	0,0994063914
3	0	410,0000	0,0998073816
3	0	415,0000	0,101449542
3	0	420,0000	0,10333994
3	0	425,0000	0,103950977
3	0	430,0000	0,104504727
3	0	435,0000	0,104562014
3	0	440,0000	0,103282653
3	0	445,0000	0,102289721
3	0	450,0000	0,100399323
3	0	455,0000	0,0979933664
3	0	460,0000	0,097496897
3	0	465,0000	0,099272728
3	0	470,0000	0,101411358
3	0	475,0000	0,103607267
3	0	480,0000	0,104351968
3	0	485,0000	0,104829341
3	0	490,0000	0,103378132
3	0	495,0000	0,101411358
3	0	500,0000	0,0991581529
3	0	505,0000	0,0982225016
3	0	510,0000	0,0975732803
3	0	515,0000	0,0976496562
3	0	520,0000	0,0987380669
3	0	525,0000	0,100151092
3	0	530,0000	0,102576144
3	0	535,0000	0,104027353
3	0	540,0000	0,104523823
3	0	545,0000	0,104943909
3	0	550,0000	0,104791149
3	0	555,0000	0,103359036
3	0	560,0000	0,102900758
3	0	565,0000	0,102576144
3	0	570,0000	0,102862567
3	0	575,0000	0,103072613
3	0	580,0000	0,102977134
3	0	585,0000	0,10209877
3	0	590,0000	0,0994445756
3	0	595,0000	0,0980315581
3	0	600,0000	0,0981270298