File: Experimentelles/Rohdaten/Batterietests/AlteZelle/Studenten_Batterietests/ASS Batterie 03/ECLab-Export/LiNiMnO-LATP-LTO_2_04_OCV_C01.mpt
EC-Lab ASCII FILE
Nb header lines : 46

Open Circuit Voltage

Run on channel : 1 (SN 6985)
Grouped channel(s) : 1
User :
CE vs. WE compliance from -10 V to 10 V
Electrode connection : standard
Ewe ctrl range : min = -10,00 V, max = 10,00 V
Acquisition started on : 01.29.2015 21:34:39
Saved on :
	File : LiNiMnO-LATP-LTO_2_04_OCV_C01.mpr
	Directory : C:\Hupfer\Studenten Batterietests\ASS Batterie 03\
	Host : 192.168.0.2
Device : VMP3 (SN 0324)
Address : 192.168.0.1
EC-Lab for windows v10.33 (software)
Internet server v10.33 (firmware)
Command interpretor v10.32 (firmware)
Electrode material :
Initial state :
Electrolyte :
Comments :
Mass of active material : 0,001 mg
 at x = 0,000
Molecular weight of active material (at x = 0) : 0,001 g/mol
Atomic weight of intercalated ion : 0,001 g/mol
Acquisition started at : xo = 0,000
Number of e- transfered per intercalated ion : 1
for DX = 1, DQ = 26,801 mA.h
Battery capacity : 0,000 A.h
Electrode surface area : 0,001 cm²
Characteristic mass : 0,001 g
tR (h:m:s)          0:10:0,0000
dER/dt (mV/h)       0,0
dER (mV)            0,00
dtR (s)             5,0000
E range min (V)     -10,000
E range max (V)     10,000

Number of loops : 1
Loop 0 from point number 0 to 120

mode	error	time/s	Ewe/V
3	0	601,1550	0,0787457004
3	0	606,1550	0,111970834
3	0	611,1550	0,112811014
3	0	616,1550	0,112524591
3	0	621,1550	0,111875363
3	0	626,1550	0,110137723
3	0	631,1550	0,108323708
3	0	636,1550	0,106586076
3	0	641,1550	0,106146894
3	0	646,1550	0,106834307
3	0	651,1550	0,108094573
3	0	656,1550	0,109316647
3	0	661,1550	0,110309578
3	0	666,1550	0,111073375
3	0	671,1550	0,111397989
3	0	676,1550	0,11118795
3	0	681,1550	0,11084424
3	0	686,1550	0,110309578
3	0	691,1550	0,109774925
3	0	696,1550	0,109851301
3	0	701,1550	0,109335743
3	0	706,1550	0,109068409
3	0	711,1550	0,108056381
3	0	716,1550	0,10796091
3	0	721,1550	0,107388057
3	0	726,1550	0,107559912
3	0	731,1550	0,106643356
3	0	736,1550	0,106929779
3	0	741,1550	0,107025258
3	0	746,1550	0,107006162
3	0	751,1550	0,106815211
3	0	756,1550	0,106948875
3	0	761,1550	0,106910691
3	0	766,1550	0,107082538
3	0	771,1550	0,107273489
3	0	776,1550	0,107158922
3	0	781,1550	0,107273489
3	0	786,1550	0,107693575
3	0	791,1550	0,108132765
3	0	796,1550	0,109144792
3	0	801,1550	0,110061347
3	0	806,1550	0,112505496
3	0	811,1550	0,114052184
3	0	816,1550	0,113670282
3	0	821,1550	0,111856267
3	0	826,1550	0,110080443
3	0	831,1550	0,108380996
3	0	836,1550	0,107769959
3	0	841,1550	0,107006162
3	0	846,1550	0,107311681
3	0	851,1550	0,108285524
3	0	856,1550	0,111207038
3	0	861,1550	0,113670282
3	0	866,1550	0,113994896
3	0	871,1550	0,1124864
3	0	876,1550	0,110519625
3	0	881,1550	0,108552851
3	0	886,1550	0,107158922
3	0	891,1550	0,108075477
3	0	896,1550	0,111321613
3	0	901,1550	0,113746665
3	0	906,1550	0,114090376
3	0	911,1550	0,112104505
3	0	916,1550	0,108992033
3	0	921,1550	0,107178017
3	0	926,1550	0,109507598
3	0	931,1550	0,113345668
3	0	936,1550	0,114013992
3	0	941,1550	0,111875363
3	0	946,1550	0,108266428
3	0	951,1550	0,107579008
3	0	956,1550	0,111168854
3	0	961,1550	0,113880329
3	0	966,1550	0,113689378
3	0	971,1550	0,109221168
3	0	976,1550	0,107598104
3	0	981,1550	0,110500529
3	0	986,1550	0,114548653
3	0	991,1550	0,112238169
3	0	996,1550	0,107655391
3	0	1001,1550	0,110023156
3	0	1006,1550	0,114644125
3	0	1011,1550	0,112276353
3	0	1016,1550	0,108228236
3	0	1021,1550	0,108858369
3	0	1026,1550	0,113383859
3	0	1031,1550	0,114510462
3	0	1036,1550	0,110672385
3	0	1041,1550	0,107311681
3	0	1046,1550	0,111283422
3	0	1051,1550	0,114682317
3	0	1056,1550	0,110958807
3	0	1061,1550	0,108037286
3	0	1066,1550	0,112600967
3	0	1071,1550	0,114376798
3	0	1076,1550	0,109965876
3	0	1081,1550	0,107846335
3	0	1086,1550	0,110195011
3	0	1091,1550	0,113994896
3	0	1096,1550	0,113021061
3	0	1101,1550	0,108170949
3	0	1106,1550	0,109832205
3	0	1111,1550	0,11502602
3	0	1116,1550	0,110920615
3	0	1121,1550	0,10786543
3	0	1126,1550	0,111798987
3	0	1131,1550	0,114835076
3	0	1136,1550	0,110825144
3	0	1141,1550	0,107922718
3	0	1146,1550	0,112600967
3	0	1151,1550	0,11481598
3	0	1156,1550	0,10994678
3	0	1161,1550	0,108094573
3	0	1166,1550	0,111722603
3	0	1171,1550	0,115045115
3	0	1176,1550	0,111130662
3	0	1181,1550	0,107674487
3	0	1186,1550	0,110137723
3	0	1191,1550	0,114090376
3	0	1196,1550	0,114777789
3	0	1201,1550	0,110481434