File: Experimentelles/Rohdaten/Batterietests/AlteZelle/Studenten_Batterietests/S+C_LATP_Au/OCV_CV/ECLab-Export/S+C_LATP_AU_01_OCV_C03.mpt
EC-Lab ASCII FILE
Nb header lines : 50

Open Circuit Voltage

Run on channel : 3 (SN 6987)
Grouped channel(s) : 3
User :
CE vs. WE compliance from -10 V to 10 V
Electrode connection : standard
Ewe ctrl range : min = -5,00 V, max = 5,00 V
Acquisition started on : 02.10.2015 16:34:49
Saved on :
	File : S+C_LATP_AU_01_OCV_C03.mpr
	Directory : C:\Hupfer\Studenten Batterietests\S+C_LATP_Au\OCV_CV\
	Host : 192.168.0.2
Device : VMP3 (SN 0324)
Address : 192.168.0.1
EC-Lab for windows v10.33 (software)
Internet server v10.33 (firmware)
Command interpretor v10.32 (firmware)
Electrode material :
Initial state :
Electrolyte :
Comments :
Electrode surface area : 0,001 cm²
Characteristic mass : 0,001 g
Equivalent Weight : 0,000 g/eq.
Density : 0,000 g/cm3
tR (h:m:s)          0:10:30,0000
dER/dt (mV/h)       1,0
dER (mV)            1,00
dtR (s)             0,5000
E range min (V)     -5,000
E range max (V)     5,000

Number of loops : 11
Loop 0 from point number 0 to 880
Loop 1 from point number 881 to 2644
Loop 2 from point number 2645 to 4330
Loop 3 from point number 4331 to 5853
Loop 4 from point number 5854 to 7332
Loop 5 from point number 7333 to 8688
Loop 6 from point number 8689 to 10037
Loop 7 from point number 10038 to 11387
Loop 8 from point number 11388 to 12743
Loop 9 from point number 12744 to 14107
Loop 10 from point number 14108 to 15480

mode	error	time/s	Ewe/V
3	0	0,0000	0,000308061164
3	0	26,0000	0,000212743034
3	0	52,0000	0,000422442885
3	0	78,0000	0,000670270005
3	0	104,0000	0,000136488539
3	0	130,0000	-0,000111338581
3	0	156,0000	0,000136488539
3	0	182,0000	0,000498697395
3	0	208,0000	0,000479633774
3	0	234,0000	3,043162E-006
3	0	260,0000	0,000460570154
3	0	286,0000	-9,22749532E-005
3	0	312,0000	-9,22749532E-005
3	0	338,0000	0,000327124784
3	0	364,0000	0,0001936794
3	0	390,0000	-3,50840855E-005
3	0	416,0000	-3,50840855E-005
3	0	1439,9934	-0,361271679
3	0	1440,0554	-0,418748498
3	0	1440,1794	-0,474338025
3	0	1440,4150	-0,529050589
3	0	1440,8420	-0,583381951
3	0	1441,5248	-0,637446404
3	0	1442,4734	-0,691091418
3	0	1443,7938	-0,744717419
3	0	1445,8112	-0,798305213
3	0	1449,1894	-0,85179776
3	0	1455,9198	-0,905271232
3	0	1476,4128	-0,945609868
3	0	1502,4128	-0,935258329
3	0	1528,4128	-0,911295354
3	0	1554,4128	-0,885406911
3	0	1580,4128	-0,861577392
3	0	1606,4128	-0,840836167
3	0	1632,4128	-0,823545456
3	0	1658,4128	-0,8093431
3	0	1684,4128	-0,797714293
3	0	1710,4128	-0,787839293
3	0	1736,4128	-0,779298782
3	0	1762,4128	-0,771673381
3	0	1788,4128	-0,765001059
3	0	1814,4128	-0,758557558
3	0	1840,4128	-0,753048182
3	0	1866,4128	-0,747538805
3	0	1892,4128	-0,742486954
3	0	1918,4128	-0,737416029
3	0	1944,4128	-0,732364178
3	0	1970,4128	-0,727731705
3	0	1996,4127	-0,722965777
3	0	2022,4127	-0,718428671
3	0	2048,4127	-0,713738978
3	0	3070,0915	-1,1825428
3	0	3070,1477	-1,24082029
3	0	3070,2463	-1,29776335
3	0	3070,4037	-1,3531431
3	0	3070,6529	-1,4086374
3	0	3071,0447	-1,46289241
3	0	3071,7005	-1,51670897
3	0	3072,9423	-1,57029688
3	0	3076,2073	-1,6239419
3	0	3095,4627	-1,65459621
3	0	3121,4627	-1,63366437
3	0	3147,4627	-1,60527861
3	0	3173,4627	-1,57470059
3	0	3199,4627	-1,5447135
3	0	3225,4627	-1,51606083
3	0	3251,4627	-1,48912394
3	0	3277,4627	-1,46323562
3	0	3303,4627	-1,43822408
3	0	3329,4627	-1,4138608
3	0	3355,4627	-1,38985968
3	0	3381,4627	-1,36561072
3	0	3407,4627	-1,34105682
3	0	3433,4627	-1,31633127
3	0	3459,4627	-1,29114819
3	0	3485,4627	-1,26531696
3	0	3511,4627	-1,23879957
3	0	3537,4627	-1,21159577
3	0	3563,4627	-1,18387723
3	0	3589,4627	-1,15554869
3	0	3615,4627	-1,12659109
3	0	3641,4627	-1,09696615
3	0	3667,4627	-1,06716967
3	0	3693,4627	-1,03754485
3	0	4700,2137	-1,54829741
3	0	4700,3059	-1,60443985
3	0	4700,5047	-1,65953374
3	0	4700,9699	-1,71357906
3	0	4702,4787	-1,7671479
3	0	4718,0909	-1,80605674
3	0	4744,0909	-1,80157673
3	0	4770,0909	-1,79229271
3	0	4796,0909	-1,78020644
3	0	4822,0909	-1,76567996
3	0	4848,0909	-1,74808419
3	0	4874,0909	-1,72780049
3	0	4900,0909	-1,7049433
3	0	4926,0909	-1,68067527
3	0	4952,0909	-1,65633106
3	0	4978,0909	-1,63267303
3	0	5004,0909	-1,61019707
3	0	5030,0909	-1,58907449
3	0	5056,0909	-1,56943905
3	0	5082,0909	-1,55035627
3	0	5108,0909	-1,53216958
3	0	5134,0909	-1,51449764
3	0	5160,0909	-1,49701631
3	0	5186,0909	-1,47953498
3	0	5212,0909	-1,46203458
3	0	5238,0909	-1,44457233
3	0	5264,0909	-1,42686212
3	0	5290,0909	-1,40867543
3	0	5316,0909	-1,39006937
3	0	6330,3115	-1,64111829
3	0	6330,3567	-1,7013402
3	0	6330,4635	-1,75708222
3	0	6330,8447	-1,81135643
3	0	6336,5981	-1,86360979
3	0	6362,5981	-1,85977805
3	0	6388,5981	-1,85291505
3	0	6414,5981	-1,84673846
3	0	6440,5981	-1,84021878
3	0	6466,5981	-1,83297455
3	0	6492,5981	-1,82460558
3	0	6518,5981	-1,81486416
3	0	6544,5981	-1,8035022
3	0	6570,5981	-1,79038644
3	0	6596,5981	-1,77509737
3	0	6622,5981	-1,75807357
3	0	6648,5981	-1,73897183
3	0	6674,5981	-1,71885967
3	0	6700,5981	-1,69832814
3	0	6726,5981	-1,6778729
3	0	6752,5981	-1,65867579
3	0	6778,5981	-1,64020324
3	0	6804,5981	-1,62316036
3	0	6830,5981	-1,60682273
3	0	6856,5981	-1,59126687
3	0	6882,5981	-1,57609224
3	0	6908,5981	-1,56122255
3	0	6934,5981	-1,54671514
3	0	6960,2997	-1,53251278
3	0	7960,5840	-1,83215487
3	0	7964,6456	-1,88553298
3	0	7990,6456	-1,87718308
3	0	8016,6456	-1,86786103
3	0	8042,6456	-1,86046433
3	0	8068,6456	-1,8536967
3	0	8094,6456	-1,84702444
3	0	8120,6456	-1,83964682
3	0	8146,6456	-1,83112538
3	0	8172,6456	-1,82151735
3	0	8198,6456	-1,81053662
3	0	8224,6456	-1,79795468
3	0	8250,6456	-1,78390479
3	0	8276,6456	-1,76812005
3	0	8302,6456	-1,75084841
3	0	8328,6456	-1,73292863
3	0	8354,6456	-1,71445596
3	0	8380,6456	-1,6962502
3	0	8406,6456	-1,67884517
3	0	8432,6456	-1,66231704
3	0	8458,6456	-1,64660859
3	0	8484,6456	-1,63183427
3	0	8510,6456	-1,61772716
3	0	8536,6456	-1,60386789
3	0	8562,6456	-1,59038997
3	0	8588,6456	-1,57717884
3	0	9590,6672	-1,84134352
3	0	9596,0080	-1,89254832
3	0	9622,0080	-1,8799473
3	0	9648,0080	-1,86873794
3	0	9674,0080	-1,86000681
3	0	9700,0080	-1,85198092
3	0	9726,0080	-1,84387898
3	0	9752,0080	-1,83507156
3	0	9778,0080	-1,82496786
3	0	9804,0080	-1,8137393
3	0	9830,0080	-1,8011955
3	0	9856,0080	-1,78691685
3	0	9882,0080	-1,7709415
3	0	9908,0080	-1,75376523
3	0	9934,0080	-1,73584533
3	0	9960,0080	-1,71769679
3	0	9986,0080	-1,70004392
3	0	10012,0080	-1,68351579
3	0	10038,0080	-1,66792166
3	0	10064,0080	-1,65301394
3	0	10090,0080	-1,63930714
3	0	10116,0080	-1,62609613
3	0	10142,0080	-1,61305654
3	0	10168,0080	-1,60064614
3	0	10194,0080	-1,58854079
3	0	10220,0080	-1,57662594
3	0	11220,7996	-1,84149599
3	0	11227,3858	-1,89007008
3	0	11253,3858	-1,87531483
3	0	11279,3858	-1,8629235
3	0	11305,3858	-1,85259104
3	0	11331,3858	-1,84250641
3	0	11357,3858	-1,83225012
3	0	11383,3858	-1,8210026
3	0	11409,3858	-1,80843961
3	0	11435,3858	-1,79408479
3	0	11461,3858	-1,77810943
3	0	11487,3858	-1,76039934
3	0	11513,3858	-1,7412976
3	0	11539,3858	-1,72217679
3	0	11565,3858	-1,70343721
3	0	11591,3858	-1,68584144
3	0	11617,3858	-1,66973269
3	0	11643,3858	-1,65455806
3	0	11669,3858	-1,640432
3	0	11695,3858	-1,62722087
3	0	11721,3858	-1,6145817
3	0	11747,3858	-1,60249531
3	0	11773,3858	-1,59086657
3	0	11799,3858	-1,57939017
3	0	11825,3858	-1,56799018
3	0	12850,6744	-1,77397263
3	0	12850,8848	-1,8292762
3	0	12855,4182	-1,88219678
3	0	12881,4182	-1,86875701
3	0	12907,4182	-1,85455453
3	0	12933,4182	-1,84227765
3	0	12959,4182	-1,83028662
3	0	12985,4182	-1,81779993
3	0	13011,4182	-1,80405498
3	0	13037,4182	-1,78838468
3	0	13063,4182	-1,77063644
3	0	13089,4182	-1,75069594
3	0	13115,4182	-1,72964966
3	0	13141,4182	-1,7087369
3	0	13167,4182	-1,68894887
3	0	13193,4182	-1,67112434
3	0	13219,4182	-1,65461528
3	0	13245,4182	-1,6394788
3	0	13271,4182	-1,62546694
3	0	13297,4182	-1,61223686
3	0	13323,4182	-1,59963584
3	0	13349,4182	-1,58764482
3	0	13375,4182	-1,57586348
3	0	13401,4182	-1,5644443
3	0	13427,4182	-1,55334926
3	0	13453,4182	-1,54219711
3	0	13479,4182	-1,53102577
3	0	14480,9210	-1,80819178
3	0	14482,4626	-1,86206567
3	0	14505,6228	-1,86412454
3	0	14531,6228	-1,84822547
3	0	14557,6228	-1,83409929
3	0	14583,6228	-1,82044971
3	0	14609,6228	-1,8058089
3	0	14635,6228	-1,78933787
3	0	14661,6228	-1,7704649
3	0	14687,6228	-1,74894214
3	0	14713,6228	-1,72566545
3	0	14739,6228	-1,7026937
3	0	14765,6228	-1,68172371
3	0	14791,6228	-1,66243136
3	0	14817,6228	-1,64523602
3	0	14843,6228	-1,62916529
3	0	14869,6228	-1,61463881
3	0	14895,6228	-1,60095119
3	0	14921,6228	-1,5879879
3	0	14947,6228	-1,57555842
3	0	14973,6228	-1,56360555
3	0	14999,6228	-1,55184329
3	0	15025,6228	-1,54017639
3	0	15051,6228	-1,52879536
3	0	15077,6228	-1,51747155
3	0	15103,6228	-1,50614774
3	0	16110,9436	-1,77749944
3	0	16111,5150	-1,83146846
3	0	16125,0392	-1,86359072
3	0	16151,0392	-1,84622371
3	0	16177,0392	-1,83057249
3	0	16203,0391	-1,81520724
3	0	16229,0391	-1,79850757
3	0	16255,0391	-1,77953923
3	0	16281,0391	-1,75712037
3	0	16307,0391	-1,7321471
3	0	16333,0391	-1,70684958
3	0	16359,0391	-1,68317258
3	0	16385,0391	-1,66193569
3	0	16411,0391	-1,64306271
3	0	16437,0391	-1,62586737
3	0	16463,0391	-1,6101017
3	0	16489,0391	-1,59563243
3	0	16515,0391	-1,5819447
3	0	16541,0391	-1,56894338
3	0	16567,0391	-1,55628514
3	0	16593,0391	-1,54406536
3	0	16619,0391	-1,53213155
3	0	16645,0391	-1,52017856
3	0	16671,0391	-1,50845444
3	0	16697,0391	-1,49688292
3	0	16723,0391	-1,48533034
3	0	16740,8643	-1,47722828