File: Experimentelles/Rohdaten/Batterietests/AlteZelle/Studenten_Batterietests/Sonstige/ZView-Export/LiCoO2 vs Li_05_GCPL_C01_loop1.txt
EC-Lab ASCII FILE
Nb header lines : 3
mode	ox/red	error	control changes	Ns changes	counter inc.	Ns	time/s	control/V/mA	Ewe/V	dq/mA.h	<I>/mA	P/W	(Q-Qo)/mA.h	x	Capacity/mA.h
1	0	0	1	1	0	1	86641,19	-0,100000001	3,78430223	0	0	0	0	0	0
1	0	0	1	0	0	1	87071,20	-0,100000001	3,46318316	-0,00027772546044778493	-0,099979190014349222	0,000346246234	-0,011940812751247997	0,00044552777834255539	0,011940812751247997
1	0	0	1	0	0	1	87501,20	-0,100000001	3,24924374	-0,00027772600773928899	-0,099979386891220339	0,000324857392	-0,023883013209484451	0,00089110733389864205	0,023883013209484451
1	0	0	1	0	0	1	87931,21	-0,100000001	3,01435733	-0,00027772540413050189	-0,099979169367938419	0,000301372929	-0,03582520683611095	0,001336686634558176	0,03582520683611095
1	0	0	1	0	0	1	88361,22	-0,100000001	2,77465892	-0,00027772754858227242	-0,099979941355317235	0,000277410232	-0,047767420671507226	0,0017822666892340813	0,047767420671507226
1	0	0	1	0	0	1	88791,23	-0,100000001	2,54509997	-0,00027772528684511779	-0,099979127147198554	0,000254456885	-0,059709649266136128	0,0022278472945968	0,059709649266136128
1	0	0	1	0	0	1	89221,24	-0,100000001	2,31559825	-0,00027772416102803414	-0,099978722098491085	0,000231510552	-0,071651828704924966	0,0026734260658890352	0,071651828704924966
1	0	0	1	0	0	1	89651,25	-0,100000001	2,02877378	-0,0002777238467464017	-0,099978609092021811	0,00020283398	-0,083593966155463962	0,0031190032705432147	0,083593966155463962
1	0	0	1	0	0	1	90081,25	-0,100000001	1,73516941	-0,00027772406652776733	-0,09997868821407767	0,000173479959	-0,09553608224187785	0,0035645796780731622	0,09553608224187785
1	0	0	1	0	0	1	90511,26	-0,100000001	1,53385186	-0,0002777231311057177	-0,099978351398961728	0,000153351983	-0,10747821570000744	0,0040101567337651795	0,10747821570000744
1	1	0	0	0	0	2	90924,42	0,100000001	2,60767317	0,0002778293925383025	0,10001660482741414	0,00026081063	-0,1022857902908721	0,0038164203604601274	0,0083348862414219302
1	1	0	0	0	0	2	91354,43	0,100000001	2,98825359	0,00027782992827354202	0,10001679768828915	0,000298875559	-0,090339117525555046	0,003370673937113783	0,020281559006738992
1	1	0	0	0	0	2	91784,44	0,100000001	3,24133754	0,00027782953035665882	0,10001665418954798	0,000324187742	-0,078392455038908749	0,0029249278972784646	0,032228221493385325
1	1	0	0	0	0	2	92214,45	0,100000001	3,42033315	0,00027782929314176237	0,10001656867394776	0,000342089974	-0,066445794830715405	0,0024791819424552883	0,044174881701578675
1	1	0	0	0	0	2	92644,46	0,100000001	3,53117919	0,00027782995187491178	0,10001680581319442	0,000353177253	-0,054499122307050464	0,0020334355281253091	0,056121554225243629
1	1	0	0	0	0	2	93074,47	0,100000001	3,60482812	0,00027783001236369213	0,1000168276585845	0,000360543461	-0,042552446552590272	0,001587688993250015	0,068068229979703795
1	1	0	0	0	0	2	93504,47	0,100000001	3,65783572	0,00027782925816045866	0,10001655642090962	0,000365844142	-0,030605779838989517	0,0011419427957013422	0,080014896693304563
1	1	0	0	0	0	2	93934,48	0,100000001	3,69850779	0,00027782893420341942	0,10001643983128117	0,000369911577	-0,01865912144752833	0,00069619690866288576	0,091961555084765773
1	1	0	0	0	0	2	94364,49	0,100000001	3,73041534	0,00027782869728406266	0,10001635454083389	0,00037310255	-0,006712470013205719	0,00025045128120462362	0,10390820651908837
1	1	0	0	0	0	2	94794,50	0,100000001	3,75550604	0,00027782823732205558	0,10001618878546435	0,000375611387	0,005234180195217399	-0,00019529430051368019	0,11585485672751152
1	1	0	0	0	0	2	95224,51	0,100000001	3,77519298	0,00027782873581598202	0,1000163680396136	0,000377581076	0,017180814150128166	-0,00064103927579158515	0,12780149068242227
1	1	0	0	0	0	2	95654,52	0,100000001	3,79123259	0,00027782867670307555	0,10001634675924237	0,000379185221	0,029127454161187488	-0,0010867844770325354	0,13974813069348149
1	1	0	0	0	0	2	96084,52	0,100000001	3,80448461	0,00027782884845096202	0,10001640858784162	0,000380510901	0,04107409114952761	-0,0015325295654917677	0,15169476768182157
1	1	0	0	0	0	2	96514,53	0,100000001	3,81582689	0,00027782915222272275	0,1000165182037401	0,000381645717	0,053020749077426925	-0,0019782754352341078	0,1636414256097209
1	1	0	0	0	0	2	96944,54	0,100000001	3,82573724	0,00027782966157504253	0,10001670167989094	0,000382637634	0,064967413749937818	-0,0024240215566269734	0,17558809028223171
1	1	0	0	0	0	2	97374,55	0,100000001	3,83503628	0,00027782898133579229	0,1000164567986001	0,000383566745	0,07691407045027703	-0,0028697673805673949	0,18753474698257085
1	1	0	0	0	0	2	97804,56	0,100000001	3,84391546	0,00027782909205017818	0,10001649656184563	0,000384454965	0,088860734764999488	-0,0033155134886106938	0,19948141129729325
1	1	0	0	0	0	2	98234,57	0,100000001	3,85216451	0,00027782904619309638	0,1000164797834997	0,000385279942	0,10080739617619592	-0,0037612594883195315	0,21142807270848966
1	1	0	0	0	0	2	98664,58	0,100000001	3,86014628	0,00027782950873093472	0,10001664628451581	0,000386078871	0,11275404872969466	-0,00420700515753576	0,22337472526198838
1	1	0	0	0	0	2	99094,58	0,100000001	3,86799431	0,00027782899515330794	0,10001646139906013	0,000386863103	0,12470071679366678	-0,0046527514054686048	0,23532139332596051
1	1	0	0	0	0	2	99524,59	0,100000001	3,87557483	0,00027782928236242797	0,10001656497393414	0,000387621694	0,13664736573964486	-0,0050984969400833862	0,24726804227193859
1	1	0	0	0	0	2	99954,60	0,100000001	3,88290739	0,00027782984894721043	0,1000167691313741	0,000388355838	0,14859404096506838	-0,0055442434552196102	0,25921471749736198
1	1	0	0	0	0	2	100384,61	0,100000001	3,8898387	0,00027782969209717386	0,1000167126666223	0,000389048888	0,16054071155769478	-0,0059899897974999462	0,27116138808998819
1	1	0	0	0	0	2	100814,62	0,100000001	3,89682746	0,00027782848645043037	0,1000162786282543	0,000389746187	0,1724873699267521	-0,0064357356837024845	0,28310804645904541
1	1	0	0	0	0	2	101244,63	0,100000001	3,90337706	0,00027782864063978192	0,1000163338652016	0,000390401459	0,18443401881653917	-0,006881481216220704	0,29505469534883277
1	1	0	0	0	0	2	101674,64	0,100000001	3,90975475	0,00027782938973026147	0,10001660344512016	0,000391040405	0,19638067388575962	-0,0073272269793018918	0,30700135041805306
1	1	0	0	0	0	2	102104,64	0,100000001	3,91582704	0,00027782937245981565	0,10001659722788254	0,000391647685	0,20832734016837699	-0,0077729731607699955	0,3189480167006704
1	1	0	0	0	0	2	102534,65	0,100000001	3,92161274	0,00027782940368188755	0,10001660857472405	0,000392226415	0,22027400818127946	-0,0082187194067973619	0,33089468471357312
1	1	0	0	0	0	2	102964,66	0,100000001	3,92737937	0,0002778297193605039	0,10001672248224595	0,000392803602	0,23222066915987238	-0,0086644653903651827	0,34284134569216614
1	1	0	0	0	0	2	103394,67	0,100000001	3,93350887	0,00027782906994140806	0,10001648869599146	0,000393415743	0,24416733154975558	-0,0091102114265901402	0,35478800808204922
1	1	0	0	0	0	2	103824,68	0,100000001	3,93992472	0,00027782927883664768	0,1000165638967916	0,000394057744	0,25611399545490755	-0,0095559575193518118	0,36673467198720109
1	1	0	0	0	0	2	104254,69	0,100000001	3,94656968	0,00027782933119394717	0,10001658253896173	0,000394722418	0,26806064369710819	-0,010001703027707712	0,37868132022940179
1	1	0	0	0	0	2	104684,69	0,100000001	3,95382571	0,00027782945387520723	0,10001662653567989	0,000395448296	0,28000731132135437	-0,010447449259233789	0,39062798785364794
1	1	0	0	0	0	2	105114,70	0,100000001	3,96136832	0,00027782872898172998	0,10001636557933152	0,000396201649	0,29195396642143584	-0,010893195023466443	0,40257464295372941
1	1	0	0	0	0	2	105544,71	0,100000001	3,96940732	0,00027782851928596698	0,10001629011814704	0,00039700538	0,30390059890243789	-0,011338939943750832	0,41452127543473146
1	1	0	0	0	0	2	105974,72	0,100000001	3,97798085	0,00027782914687775904	0,10001651631219221	0,000397863798	0,31584724807932646	-0,011784685486981194	0,42646792461162003
1	1	0	0	0	0	2	106404,73	0,100000001	3,98703194	0,00027782881525365846	0,10001639701021344	0,000398768578	0,32779388506171834	-0,012230430575218491	0,4384145615940119
1	1	0	0	0	0	2	106834,74	0,100000001	3,99703765	0,00027782855833984083	0,10001630452306677	0,000399768935	0,33974052821046138	-0,012676175893530637	0,45036120474275494
1	1	0	0	0	0	2	107264,75	0,100000001	4,00740623	0,00027782914542282618	0,1000165157406895	0,000400806806	0,35168716383364602	-0,013121920931054085	0,46230784036593958
1	1	0	0	0	0	2	107694,75	0,100000001	4,01863384	0,00027782917565604048	0,10001652637992384	0,000401929807	0,36363379092235418	-0,013567665650144738	0,47425446745464774
1	1	0	0	0	0	2	108124,76	0,100000001	4,03070211	0,00027782847370497053	0,10001627368253328	0,000403135811	0,37558042567748166	-0,014013410655279805	0,48620110220977523
1	1	0	0	0	0	2	108554,77	0,100000001	4,0438776	0,00027782948413698208	0,10001663743086786	0,00040445503	0,38752707332620493	-0,014459156141492266	0,4981477498584985
1	1	0	0	0	0	2	108984,78	0,100000001	4,0578742	0,00027782878971555168	0,1000163876571647	0,000405853905	0,39947373272874618	-0,014904902066255482	0,51009440926104013
1	1	0	0	0	0	2	109414,79	0,100000001	4,07324553	0,00027782903124598989	0,10001647476475187	0,000407391664	0,4114203664792512	-0,01535064703390673	0,52204104301154464
1	1	0	0	0	0	2	109844,80	0,100000001	4,0898962	0,00027782860502435101	0,10001632132799402	0,000409056374	0,42336699280493414	-0,015796391724527888	0,53398766933722771
1	1	0	0	0	0	2	110274,81	0,100000001	4,10832262	0,00027782826430847251	0,10001619862147158	0,000410898821	0,43531361824791667	-0,016242136382214307	0,54593429478021005
1	1	0	0	0	0	2	110704,81	0,100000001	4,12886906	0,0002778295139984952	0,10001664823144818	0,000412955647	0,44726024567068896	-0,016687881113769344	0,55788092220298227
1	1	0	0	0	0	2	111134,82	0,100000001	4,15229845	0,0002778295297767553	0,10001665385969712	0,000415299	0,45920691114019814	-0,017133627264899286	0,5698275876724912
1	1	0	0	0	0	2	111564,83	0,100000001	4,17876387	0,00027782937574966086	0,10001659841220342	0,000417945761	0,47115357608761978	-0,01757937339654944	0,58177425261991283
1	1	0	0	0	0	2	111882,07	0,100000001	4,19994116	0,00020098896351415251	0,10001664803026386	0,000420064025	0,4799672789027625	-0,017908224498731882	0,59058795543505638