File: Experimentelles/Rohdaten/Batterietests/AlteZelle/Studenten_Batterietests/Sonstige/ZView-Export/LiCoO2 vs Li_05_GCPL_C01_loop10.txt
EC-Lab ASCII FILE
Nb header lines : 3
mode	ox/red	error	control changes	Ns changes	counter inc.	Ns	time/s	control/V/mA	Ewe/V	dq/mA.h	<I>/mA	P/W	(Q-Qo)/mA.h	x	Capacity/mA.h
1	0	0	1	1	0	1	311451,01	-0,100000001	4,19600773	0	0	0	0	0	0
1	0	0	1	0	0	1	311821,02	-0,100000001	3,82848787	-0,00027771809704808726	-0,099976589897274214	0,000382759172	-0,01027420547485912	0,00038334442008317146	0,01027420547485912
1	0	0	1	0	0	1	312191,03	-0,100000001	3,78216362	-0,00027771832108290662	-0,099976670543600832	0,000378128112	-0,020549793943290717	0,00076674044151598682	0,020549793943290717
1	0	0	1	0	0	1	312561,03	-0,100000001	3,74523401	-0,0002777182138135864	-0,099976631928552973	0,000374435884	-0,030825384502510867	0,0011501365409589341	0,030825384502510867
1	0	0	1	0	0	1	312931,04	-0,100000001	3,71197081	-0,00027771902070608403	-0,099976922407750605	0,000371111411	-0,041100980276553805	0,0015335328349739309	0,041100980276553805
1	0	0	1	0	0	1	313301,05	-0,100000001	3,68000579	-0,00027771868700161574	-0,09997680227645513	0,0003679152	-0,051376576013802048	0,0019169291276160685	0,051376576013802048
1	0	0	1	0	0	1	313671,05	-0,100000001	3,64869022	-0,00027771881868938602	-0,099976849683139622	0,000364784559	-0,06165217428208992	0,0023003255146946976	0,06165217428208992
1	0	0	1	0	0	1	314041,06	-0,100000001	3,61704993	-0,00027771898199535078	-0,099976908468663373	0,000361621467	-0,071927778580289984	0,0026837221267574573	0,071927778580289984
1	0	0	1	0	0	1	314411,07	-0,100000001	3,5846076	-0,000277717957712296	-0,09997653973269975	0,000358376652	-0,082203362759221146	0,0030671179881432442	0,082203362759221146
1	0	0	1	0	0	1	314781,08	-0,100000001	3,5507524	-0,00027771821672386595	-0,099976632979724992	0,000354992284	-0,09247893361948247	0,003450513352591552	0,09247893361948247
1	0	0	1	0	0	1	315151,08	-0,100000001	3,51542687	-0,00027771844455599786	-0,099976714997713242	0,000351460825	-0,10275451945695059	0,0038339092758595827	0,10275451945695059
1	0	0	1	0	0	1	315521,09	-0,100000001	3,47767615	-0,00027771821531612013	-0,099976632470618534	0,000347686349	-0,11303011240979853	0,0042173054646120013	0,11303011240979853
1	0	0	1	0	0	1	315891,10	-0,100000001	3,43662214	-0,0002777187572158873	-0,099976827550778483	0,000343582593	-0,12330570188997346	0,00460070152379432	0,12330570188997346
1	0	0	1	0	0	1	316261,10	-0,100000001	3,391711	-0,00027771848842253286	-0,099976730789361766	0,000339092163	-0,1335812804076521	0,0049840971739511642	0,1335812804076521
1	0	0	1	0	0	1	316631,11	-0,100000001	3,34223604	-0,0002777186192625927	-0,099976777890876378	0,000334145996	-0,14385687040877414	0,0053674932525707206	0,14385687040877414
1	0	0	1	0	0	1	317001,12	-0,100000001	3,2872045	-0,000277717809016092	-0,099976486203097024	0,00032864316	-0,15413244395904442	0,0057508887173868794	0,15413244395904442
1	0	0	1	0	0	1	317371,13	-0,100000001	3,22564244	-0,00027771844093625744	-0,099976713691722125	0,000322489126	-0,1644080193397303	0,0061342842504983053	0,1644080193397303
1	0	0	1	0	0	1	317741,13	-0,100000001	3,15663362	-0,00027771826460543606	-0,099976650212102899	0,000315589656	-0,17468360488555158	0,0065176801628846003	0,17468360488555158
1	0	0	1	0	0	1	318111,14	-0,100000001	3,07865	-0,00027771811347578963	-0,09997659581113321	0,000307792943	-0,18495919083987171	0,0069010760905125363	0,18495919083987171
1	0	0	1	0	0	1	318481,15	-0,100000001	2,98966765	-0,00027771870229476032	-0,099976807781881178	0,000298897416	-0,19523477023854093	0,0072844717735403226	0,19523477023854093
1	0	0	1	0	0	1	318851,15	-0,100000001	2,88848376	-0,00027771889673090643	-0,099976877775218278	0,000288781594	-0,205510371149496	0,0076678682592204186	0,205510371149496
1	0	0	1	0	0	1	319221,16	-0,100000001	2,7774086	-0,00027771845913264486	-0,099976720240549683	0,000277676212	-0,21578597565576682	0,0080512648790465779	0,21578597565576682
1	0	0	1	0	0	1	319591,17	-0,100000001	2,66062427	-0,00027771823866168659	-0,099976640877188365	0,000266000279	-0,22606155113897094	0,0084346604159830976	0,22606155113897094
1	0	0	1	0	0	1	319961,18	-0,100000001	2,54263687	-0,00027771863833400938	-0,099976784756454195	0,000254204671	-0,23633713716730544	0,0088180563463726093	0,23633713716730544
1	0	0	1	0	0	1	320331,18	-0,100000001	2,42401934	-0,00027771844481345677	-0,099976715085741222	0,000242345486	-0,24661272469881814	0,009201452332847721	0,24661272469881814
1	0	0	1	0	0	1	320701,19	-0,100000001	2,29816461	-0,00027771780664846301	-0,099976485350767002	0,000229762416	-0,25688830341426877	0,009584847990383703	0,25688830341426877
1	0	0	1	0	0	1	321071,20	-0,100000001	2,1288693	-0,00027771757833038768	-0,09997640316249792	0,00021283669	-0,2671638612571528	0,0099682428691361613	0,2671638612571528
1	0	0	1	0	0	1	321441,20	-0,100000001	1,87362754	-0,00027771864387806922	-0,099976786752277312	0,000187319267	-0,27743944611363232	0,010351638755802187	0,27743944611363232
1	0	0	1	0	0	1	321811,21	-0,100000001	1,62195575	-0,00027771758081184493	-0,099976404051149926	0,000162157303	-0,28771501185290131	0,010735033929179389	0,28771501185290131
1	1	0	0	0	0	2	322162,04	0,100000001	2,52195597	0,00027783204748771254	0,10001761126101931	0,000252240017	-0,29245792531347149	0,010911998407308229	0,0025004933594945405
1	1	0	0	0	0	2	322532,04	0,100000001	2,96604633	0,00027783287040682304	0,10001790751085226	0,000296657759	-0,28217813504188173	0,010528445610950198	0,012780283631084275
1	1	0	0	0	0	2	322902,05	0,100000001	3,11735439	0,00027783168715900845	0,10001748154984085	0,000311789947	-0,27189834198160566	0,010144892710542533	0,023060076691360531
1	1	0	0	0	0	2	323272,06	0,100000001	3,28302169	0,00027783129113622838	0,10001733897972778	0,000328359107	-0,26161855933319667	0,0097613401986156262	0,03333985933976951
1	1	0	0	0	0	2	323642,07	0,100000001	3,4285059	0,00027783199377937453	0,10001759192871858	0,000342910906	-0,25133878722846381	0,0093777880800874522	0,043619631444502208
1	1	0	0	0	0	2	324012,07	0,100000001	3,52002764	0,00027783242359591853	0,10001774666202376	0,000352065224	-0,24105899762190454	0,0089942353085426048	0,053899421051061402
1	1	0	0	0	0	2	324382,08	0,100000001	3,5795083	0,0002778321890971727	0,10001766224410072	0,000358014047	-0,23077921776120816	0,0086106829006290022	0,06417920091175785
1	1	0	0	0	0	2	324752,09	0,100000001	3,62233829	0,00027783264656323523	0,10001782692405491	0,000362298393	-0,22049942061634096	0,0082271298478197478	0,07445899805662487
1	1	0	0	0	0	2	325122,09	0,100000001	3,65598345	0,00027783248860927088	0,10001777006288694	0,00036566332	-0,21021961142640787	0,0078435763455928922	0,084738807246557914
1	1	0	0	0	0	2	325492,10	0,100000001	3,68433928	0,00027783276452869181	0,10001786939080155	0,000368499779	-0,19993981005630336	0,0074600231351343539	0,095018608616662502
1	1	0	0	0	0	2	325862,11	0,100000001	3,70937276	0,00027783174935893875	0,10001750394138461	0,000371002214	-0,18966000450724726	0,007076469768753513	0,10529841416571866
1	1	0	0	0	0	2	326232,12	0,100000001	3,73226762	0,00027783174801369514	0,10001750345710622	0,000373292103	-0,17938021678611997	0,0066929170675566656	0,11557820188684592
1	1	0	0	0	0	2	326602,12	0,100000001	3,75378752	0,00027783214617603357	0,10001764679045949	0,000375445001	-0,16910042442855894	0,0063093641933682432	0,12585799424440699
1	1	0	0	0	0	2	326972,13	0,100000001	3,77437186	0,00027783193866163494	0,10001757208438571	0,000377503515	-0,15882063641017539	0,0059258114810803648	0,13613778226279056
1	1	0	0	0	0	2	327342,14	0,100000001	3,79472709	0,00027783144670559302	0,10001739498827802	0,000379538717	-0,14854085084683971	0,005542258860393625	0,14641756782612621
1	1	0	0	0	0	2	327712,14	0,100000001	3,81512046	0,00027783160169298448	0,10001745078266464	0,000381578633	-0,13826107369346453	0,0051587065534938176	0,15669734497950141
1	1	0	0	0	0	2	328082,15	0,100000001	3,83534193	0,0002778320835038192	0,10001762422656803	0,000383601786	-0,12798130516115691	0,004775154568257632	0,16697711351180902
1	1	0	0	0	0	2	328452,16	0,100000001	3,85636544	0,00027783121101847952	0,10001731014022219	0,000385703286	-0,11770152377100074	0,0043916021032778298	0,17725689490196525
1	1	0	0	0	0	2	328822,17	0,100000001	3,87809539	0,00027783173898152179	0,10001750020558642	0,0003878774	-0,10742174567711965	0,0040080497612864826	0,18753667299584624
1	1	0	0	0	0	2	329192,17	0,100000001	3,90058923	0,0002778315985732608	0,10001744965958574	0,000390126981	-0,097141972842939533	0,0036244976155416506	0,19781644583002643
1	1	0	0	0	0	2	329562,18	0,100000001	3,92453432	0,00027783178108475274	0,10001751536245771	0,000392522168	-0,086862179822778458	0,0032409447166307283	0,20809623885018749
1	1	0	0	0	0	2	329932,19	0,100000001	3,94981599	0,00027783198810120426	0,1000175898834523	0,000395051087	-0,07658239671120992	0,0028573921874227165	0,21837602196175603
1	1	0	0	0	0	2	330302,19	0,100000001	3,97694969	0,0002778318779841065	0,10001755024089608	0,000397764758	-0,066302624146326899	0,002473840051725721	0,2286557945266391
1	1	0	0	0	0	2	330672,20	0,100000001	4,00589752	0,00027783119895557562	0,10001730579998909	0,000400659075	-0,056022857996482342	0,0020902881553824358	0,23893556067648368
1	1	0	0	0	0	2	331042,21	0,100000001	4,03719425	0,00027783274162064	0,10001786114871906	0,000403791521	-0,04574308609384375	0,0017067360443946701	0,24921533257912221
1	1	0	0	0	0	2	331412,22	0,100000001	4,07026672	0,00027783247900091939	0,10001776660511134	0,000407098996	-0,0354632850066464	0,0013231828444917789	0,25949513366631958
1	1	0	0	0	0	2	331782,22	0,100000001	4,1048665	0,0002778318197764456	0,10001752929352763	0,000410558598	-0,025183501561218582	0,00093963030282702784	0,26977491711174749
1	1	0	0	0	0	2	332152,23	0,100000001	4,14028788	0,00027783188111459213	0,10001755137250653	0,000414101465	-0,014903718816514144	0,00055607778730720845	0,28005469985645197
1	1	0	0	0	0	2	332522,24	0,100000001	4,17481136	0,00027783218047933443	0,10001765914173869	0,000417554867	-0,0046239398024155859	0,00017252541098131024	0,29033447887055053
1	1	0	0	0	0	2	332818,52	0,100000001	4,19988394	0,00017451952634751795	0,10001763291032477	0,000420062453	0,0036077183790787226	-0,00013460882335237666	0,29856613705204493