File: Experimentelles/Rohdaten/Batterietests/AlteZelle/Studenten_Batterietests/Sonstige/ZView-Export/LiCoO2 vs Li_05_GCPL_C01_loop7.txt
EC-Lab ASCII FILE
Nb header lines : 3
mode	ox/red	error	control changes	Ns changes	counter inc.	Ns	time/s	control/V/mA	Ewe/V	dq/mA.h	<I>/mA	P/W	(Q-Qo)/mA.h	x	Capacity/mA.h
1	0	0	1	1	0	1	244700,52	-0,100000001	4,19600773	0	0	0	0	0	0
1	0	0	1	0	0	1	245090,52	-0,100000001	3,80887747	-0,00027771551139818298	-0,099977568460636301	0,000380802318	-0,010829518293338606	0,00040406388796666637	0,010829518293338606
1	0	0	1	0	0	1	245480,52	-0,100000001	3,76396608	-0,00027771477874823741	-0,099977304706697178	0,000376311189	-0,021660398697655741	0,0008081785981253193	0,021660398697655741
1	0	0	1	0	0	1	245870,52	-0,100000001	3,72879338	-0,00027771494848902026	-0,099977365813369434	0,000372794952	-0,032491279945023872	0,0012122933397393382	0,032491279945023872
1	0	0	1	0	0	1	246260,52	-0,100000001	3,69736314	-0,00027771540355558195	-0,09997752963730601	0,000369653222	-0,043322180488008282	0,001616408801298744	0,043322180488008282
1	0	0	1	0	0	1	246650,52	-0,100000001	3,66726947	-0,00027771503200506166	-0,099977395879139635	0,000366644061	-0,054153076114058598	0,002020524079400728	0,054153076114058598
1	0	0	1	0	0	1	247040,52	-0,100000001	3,63765335	-0,00027771586875990032	-0,099977697110834432	0,000363684201	-0,06498396305350016	0,0024246390333936595	0,06498396305350016
1	0	0	1	0	0	1	247430,52	-0,100000001	3,60769343	-0,00027771629602544835	-0,099977850926407654	0,000360689446	-0,075814865471946342	0,0028287545649290656	0,075814865471946342
1	0	0	1	0	0	1	247820,52	-0,100000001	3,57645416	-0,00027771408654997744	-0,099977055515362573	0,000357563345	-0,086645756950985318	0,0032328696883004806	0,086645756950985318
1	0	0	1	0	0	1	248210,52	-0,100000001	3,54361081	-0,000277714239978128	-0,099977110749488128	0,000354279968	-0,09747661892970039	0,0036369837109751469	0,09747661892970039
1	0	0	1	0	0	1	248600,52	-0,100000001	3,50891542	-0,00027771513312103021	-0,099977432280882611	0,000350812363	-0,10830749646255632	0,0040410983139957216	0,10830749646255632
1	0	0	1	0	0	1	248990,52	-0,100000001	3,4717567	-0,0002777144550987416	-0,099977188192896922	0,000347096473	-0,11913837080217744	0,0044452127978724128	0,11913837080217744
1	0	0	1	0	0	1	249380,52	-0,100000001	3,43140936	-0,00027771326007859571	-0,099976757985711706	0,000343061169	-0,12996920765626069	0,0048493258831132845	0,12996920765626069
1	0	0	1	0	0	1	249770,52	-0,100000001	3,38708997	-0,00027771348740367424	-0,099976839822727168	0,000338630547	-0,1408000525796911	0,0052534392694323501	0,1408000525796911
1	0	0	1	0	0	1	250160,52	-0,100000001	3,33868432	-0,0002777142564902703	-0,099977116693858432	0,000333792035	-0,15163091067180835	0,0056575531470928256	0,15163091067180835
1	0	0	1	0	0	1	250550,52	-0,100000001	3,28500867	-0,00027771292942100099	-0,099976638948996224	0,000328424125	-0,16246175365819747	0,0060616664611382758	0,16246175365819747
1	0	0	1	0	0	1	250940,52	-0,100000001	3,22562337	-0,00027771333621193965	-0,099976785393711232	0,000322487467	-0,17329257089908176	0,0064657788145843251	0,17329257089908176
1	0	0	1	0	0	1	251330,52	-0,100000001	3,15987968	-0,00027771325594890451	-0,099976756499023104	0,000315914513	-0,18412340486596858	0,0068698917921000166	0,18412340486596858
1	0	0	1	0	0	1	251720,52	-0,100000001	3,08623052	-0,00027771399359239475	-0,099977022050638029	0,000308552146	-0,19495425399032656	0,0072740053351613376	0,19495425399032656
1	0	0	1	0	0	1	252110,52	-0,100000001	3,00284314	-0,00027771353622691498	-0,099976857399091085	0,00030021483	-0,20578508475377718	0,0076781181931525184	0,20578508475377718
1	0	0	1	0	0	1	252500,52	-0,100000001	2,90828514	-0,00027771424795852765	-0,099977113622431552	0,000290761964	-0,21661592266579069	0,0080822313178661901	0,21661592266579069
1	0	0	1	0	0	1	252890,52	-0,100000001	2,80291939	-0,00027771440641540618	-0,099977170666898906	0,000280227949	-0,22744679420036627	0,0084863456970828608	0,22744679420036627
1	0	0	1	0	0	1	253280,52	-0,100000001	2,68964839	-0,00027771436141141584	-0,099977154465464922	0,000268903386	-0,23827765497525293	0,0088904596748410714	0,23827765497525293
1	0	0	1	0	0	1	253670,52	-0,100000001	2,57320786	-0,00027771500022626582	-0,099977384438774938	0,000257262582	-0,24910854134400691	0,0092945746075408819	0,24910854134400691
1	0	0	1	0	0	1	254060,52	-0,100000001	2,45712972	-0,00027771461675316093	-0,099977246388478771	0,000245657051	-0,25993942909855462	0,009698689591946519	0,25993942909855462
1	0	0	1	0	0	1	254450,52	-0,100000001	2,33887506	-0,00027771515099497302	-0,099977438715501018	0,00023383474	-0,27077031098083725	0,010102804357250051	0,27077031098083725
1	0	0	1	0	0	1	254840,52	-0,100000001	2,19297099	-0,00027771506841563514	-0,099977408986944026	0,000219247551	-0,2816011894592313	0,010506918995549926	0,2816011894592313
1	0	0	1	0	0	1	255230,52	-0,100000001	1,95653772	-0,0002777149840775463	-0,099977378625236813	0,000195609508	-0,29243208008066074	0,010911034086922776	0,29243208008066074
1	0	0	1	0	0	1	255620,52	-0,100000001	1,68869245	-0,00027771575604172218	-0,09997765653229664	0,00016883151	-0,30326298406126726	0,011315149676744485	0,30326298406126726
1	0	0	1	0	0	1	256010,52	-0,100000001	1,50274622	-0,00027771585816517472	-0,099977693296733798	0,000150241103	-0,31409389426449126	0,011719265498740416	0,31409389426449126
1	1	0	0	0	0	2	256389,54	0,100000001	2,88365173	0,00027782435833331613	0,1000167533511533	0,000288413488	-0,30406477683748531	0,011345065643247032	0,01027951129637576
1	1	0	0	0	0	2	256779,54	0,100000001	3,07364607	0,00027782397605809901	0,10001661573209666	0,00030741567	-0,29322963031443386	0,010940791758462544	0,021114657819427152
1	1	0	0	0	0	2	257169,54	0,100000001	3,23801494	0,000277824733297444	0,10001688833821821	0,000323856191	-0,28239446754131491	0,01053651726736619	0,03194982059254624
1	1	0	0	0	0	2	257559,54	0,100000001	3,39768672	0,00027782548057950208	0,10001715735971702	0,000339826976	-0,27155928572794374	0,010132242065852426	0,042785002405917504
1	1	0	0	0	0	2	257949,54	0,100000001	3,50198293	0,00027782409296888442	0,10001665781997283	0,000350256625	-0,26072412174996291	0,0097279675298010547	0,053620166383898522
1	1	0	0	0	0	2	258339,54	0,100000001	3,56894898	0,00027782494540678128	0,10001696469756766	0,000356955454	-0,24988895483024803	0,0093236928839896294	0,064455333303613389
1	1	0	0	0	0	2	258729,54	0,100000001	3,61678171	0,00027782469727388688	0,10001687536973966	0,000361739192	-0,23905378392224019	0,0089194180893696333	0,075290504211621146
1	1	0	0	0	0	2	259119,54	0,100000001	3,65352011	0,00027782570256830912	0,10001723727567506	0,000365414977	-0,22821861394863536	0,0085151433296134694	0,086125674185225907
1	1	0	0	0	0	2	259509,54	0,100000001	3,68390012	0,00027782508344327408	0,10001701439069731	0,000368452689	-0,21738343492089293	0,0081108682320352576	0,096960853212968256
1	1	0	0	0	0	2	259899,54	0,100000001	3,71061397	0,00027782531781122086	0,10001709876314494	0,000371124857	-0,20654826031212995	0,0077065932993351104	0,10779602782173114
1	1	0	0	0	0	2	260289,54	0,100000001	3,73452091	0,00027782435631503658	0,10001675262457277	0,00037351466	-0,19571308085038298	0,007302318185563607	0,11863120728347814
1	1	0	0	0	0	2	260679,54	0,100000001	3,75684285	0,00027782446036570605	0,1000167900828079	0,000375747361	-0,18487792157910253	0,0068980438251255539	0,12946636655475854
1	1	0	0	0	0	2	261069,54	0,100000001	3,7780571	0,00027782416529001462	0,10001668385557562	0,000377868739	-0,17404276949817341	0,0064937697329691789	0,14030151863568765
1	1	0	0	0	0	2	261459,54	0,100000001	3,79904246	0,00027782433057162499	0,10001674335694603	0,000379967852	-0,16320761780349024	0,0060894956552241587	0,15113667033037082
1	1	0	0	0	0	2	261849,54	0,100000001	3,81916857	0,00027782436700744762	0,10001675647384013	0,000381980848	-0,15237247581033024	0,0056852219394560109	0,16197181232353082
1	1	0	0	0	0	2	262239,54	0,100000001	3,83969545	0,0002778298608875937	0,10001682410479056	0,000384034152	-0,141537272355582	0,0052809459304733696	0,17280701577827907
1	1	0	0	0	0	2	262629,55	0,100000001	3,86066175	0,00027783049726941517	0,10001705319783515	0,000386132015	-0,13070189753758595	0,0048766635276975533	0,1836423905962751
1	1	0	0	0	0	2	263019,56	0,100000001	3,8818953	0,0002778302580970857	0,10001696709279707	0,000388255401	-0,11986651757165934	0,0044723809328455251	0,19447777056220173
1	1	0	0	0	0	2	263409,57	0,100000001	3,9040072	0,00027783047144363322	0,100017043898404	0,000390467263	-0,10903113295154045	0,0040680981643393267	0,20531315518232064
1	1	0	0	0	0	2	263799,57	0,100000001	3,92757034	0,00027783044302173792	0,10001703366904734	0,000392823946	-0,098195729124263552	0,0036638146791882381	0,21614855900959747
1	1	0	0	0	0	2	264189,58	0,100000001	3,95204997	0,00027783020608996352	0,1000169483752509	0,000395271985	-0,087360338940277478	0,0032595317030866739	0,22698394919358352
1	1	0	0	0	0	2	264579,59	0,100000001	3,97807646	0,00027783057057319411	0,10001707958203014	0,000397875585	-0,076524952290994214	0,0028552488588696237	0,23781933584286675
1	1	0	0	0	0	2	264969,60	0,100000001	4,00589752	0,00027783016569746867	0,10001693383073976	0,000400657591	-0,065689551986369203	0,0024509655051534138	0,24865473614749174
1	1	0	0	0	0	2	265359,60	0,100000001	4,03545666	0,00027783038413276278	0,1000170124694245	0,000403614307	-0,054854159741409715	0,0020466824521541603	0,25949012839245123
1	1	0	0	0	0	2	265749,61	0,100000001	4,06644773	0,00027783037089804806	0,10001700770501896	0,000406713923	-0,044018766477742298	0,0016423993611455443	0,27032552165611862
1	1	0	0	0	0	2	266139,62	0,100000001	4,09839344	0,00027783031836069296	0,10001698878727795	0,000409908971	-0,03318337176697015	0,0012381162161435051	0,28116091636689088
1	1	0	0	0	0	2	266529,63	0,100000001	4,13081646	0,00027783029091979066	0,10001697890990768	0,000413151778	-0,022347994792144922	0,00083383373289349197	0,2919962933417161
1	1	0	0	0	0	2	266919,63	0,100000001	4,16199875	0,00027783019884758528	0,10001694576338762	0,000416270399	-0,011512624442135482	0,00042955149682426298	0,30283166369172557
1	1	0	0	0	0	2	267309,64	0,100000001	4,19077444	0,00027783043567132618	0,1000170310229501	0,000419148826	-0,00067724797928475866	2,5269032676706854E-005	0,31366704015457626
1	1	0	0	0	0	2	267454,99	0,100000001	4,19996023	0,00014849167780329786	0,10001692083483734	0,000420067081	0,0033608648711002342	-0,00012539838707162787	0,31770515300496109