File: Experimentelles/Rohdaten/Batterietests/AlteZelle/Studenten_Batterietests/Sonstige/ZView-Export/LiCoO2 vs Li_01_OCV_C01_loop0.txt
EC-Lab ASCII FILE
Nb header lines : 3
mode	error	time/s	Ewe/V
3	1	0,00	3,12883139
3	0	15,00	3,12877417
3	0	30,00	3,12862134
3	0	45,00	3,12846851
3	0	60,00	3,12831569
3	0	75,00	3,128335
3	0	90,00	3,12810564
3	0	105,00	3,12789559
3	0	120,00	3,12789559
3	0	135,00	3,12783837
3	0	150,00	3,1276474
3	0	165,00	3,12753296
3	0	180,00	3,12751389
3	0	195,00	3,12734199
3	0	210,00	3,12717009
3	0	225,00	3,12707472
3	0	240,00	3,12694097
3	0	255,00	3,12678814
3	0	270,00	3,12696004
3	0	285,00	3,12661624
3	0	300,00	3,12644458
3	0	315,00	3,12638712
3	0	330,00	3,12629175
3	0	345,00	3,12611985
3	0	360,00	3,12592888
3	0	375,00	3,12583351
3	0	390,00	3,12579536
3	0	405,00	3,12562346
3	0	420,00	3,12550879
3	0	435,00	3,12531781
3	0	450,00	3,12526059
3	0	465,00	3,12522244
3	0	480,00	3,12506962
3	0	495,00	3,12482142
3	0	510,00	3,1248405
3	0	525,00	3,1247642
3	0	540,00	3,12457323
3	0	555,00	3,12451601
3	0	570,00	3,12428665
3	0	585,00	3,12428665
3	0	600,00	3,12403846
3	0	615,00	3,12400031
3	0	630,00	3,12386656
3	0	645,00	3,12363744
3	0	660,00	3,1236949
3	0	675,00	3,12361836
3	0	690,00	3,12342739
3	0	705,00	3,1232748
3	0	720,00	3,1231792
3	0	735,00	3,1230073
3	0	750,00	3,12289286
3	0	765,00	3,12287378
3	0	780,00	3,12274003
3	0	795,00	3,1225872
3	0	810,00	3,12249184
3	0	825,00	3,12237716
3	0	840,00	3,1222055
3	0	855,00	3,12207174
3	0	870,00	3,1220336
3	0	885,00	3,12199545
3	0	900,00	3,12188077
3	0	915,00	3,12176633
3	0	930,00	3,12153721
3	0	945,00	3,12134624
3	0	960,00	3,12130785
3	0	975,00	3,12132716
3	0	990,00	3,12119341
3	0	1005,00	3,12096429
3	0	1020,00	3,12092614
3	0	1035,00	3,12073517
3	0	1050,00	3,12063956
3	0	1065,00	3,12062049
3	0	1080,00	3,12056327
3	0	1095,00	3,12035322
3	0	1110,00	3,1201241
3	0	1125,00	3,12000942
3	0	1140,00	3,11987591
3	0	1155,00	3,12000942
3	0	1170,00	3,11974216
3	0	1185,00	3,11955118
3	0	1200,00	3,11953211
3	0	1215,00	3,11941767
3	0	1230,00	3,11922669
3	0	1245,00	3,11922669
3	0	1260,00	3,11901665
3	0	1275,00	3,11892104
3	0	1290,00	3,11876822
3	0	1305,00	3,11874914
3	0	1320,00	3,11865377
3	0	1335,00	3,11834836
3	0	1350,00	3,11842465
3	0	1365,00	3,11827183
3	0	1380,00	3,11817646
3	0	1395,00	3,11796641
3	0	1410,00	3,11787081
3	0	1425,00	3,11773729
3	0	1440,00	3,11769891
3	0	1455,00	3,11750817
3	0	1470,00	3,11746979
3	0	1485,00	3,11735535
3	0	1500,00	3,11739349
3	0	1515,00	3,11701155
3	0	1530,00	3,11701155
3	0	1545,00	3,11701155
3	0	1560,00	3,11683965
3	0	1575,00	3,11666799
3	0	1590,00	3,11659145
3	0	1605,00	3,11649609
3	0	1620,00	3,11636233
3	0	1635,00	3,11624789
3	0	1650,00	3,11615229
3	0	1665,00	3,11605692
3	0	1680,00	3,11594224
3	0	1695,00	3,11575127
3	0	1710,00	3,11567497
3	0	1725,00	3,11556029
3	0	1740,00	3,11544585
3	0	1755,00	3,115484
3	0	1770,00	3,11525488
3	0	1785,00	3,11508298
3	0	1800,00	3,11504483
3	0	1815,00	3,11493015
3	0	1830,00	3,11485386
3	0	1845,00	3,11472011
3	0	1860,00	3,11456752
3	0	1875,00	3,11452937
3	0	1890,00	3,11443377
3	0	1905,00	3,11426187
3	0	1920,00	3,11422372
3	0	1935,00	3,11408997
3	0	1950,00	3,11387992
3	0	1965,00	3,11386085
3	0	1980,00	3,11378455
3	0	1995,00	3,1136508
3	0	2010,00	3,11359358
3	0	2025,00	3,11347914
3	0	2040,00	3,11326909
3	0	2055,00	3,11325002
3	0	2070,00	3,11315441
3	0	2085,00	3,11298251
3	0	2100,00	3,11292529
3	0	2115,00	3,11282992
3	0	2130,00	3,1126771
3	0	2145,00	3,11263895
3	0	2160,00	3,11246705
3	0	2175,00	3,11239052
3	0	2190,00	3,11237144
3	0	2205,00	3,11206603
3	0	2220,00	3,11212325
3	0	2235,00	3,11200881
3	0	2250,00	3,11195135
3	0	2265,00	3,11168408
3	0	2280,00	3,11156964
3	0	2295,00	3,11143589
3	0	2310,00	3,1113596
3	0	2325,00	3,11134052
3	0	2340,00	3,11120677
3	0	2355,00	3,11114955
3	0	2370,00	3,11107302
3	0	2385,00	3,11107302
3	0	2400,00	3,11080575
3	0	2415,00	3,11071038
3	0	2430,00	3,11061478
3	0	2445,00	3,11055756
3	0	2460,00	3,1104238
3	0	2475,00	3,11023283
3	0	2490,00	3,11023283
3	0	2505,00	3,11008024
3	0	2520,00	3,10994649
3	0	2535,00	3,10992742
3	0	2550,00	3,10983181
3	0	2565,00	3,10979366
3	0	2580,00	3,10958362
3	0	2595,00	3,10966015
3	0	2610,00	3,10941172
3	0	2625,00	3,10933542
3	0	2640,00	3,1091826
3	0	2655,00	3,10901093
3	0	2670,00	3,10899162
3	0	2685,00	3,10885811
3	0	2700,00	3,10885811
3	0	2715,00	3,10866714
3	0	2730,00	3,10860991
3	0	2745,00	3,10838079
3	0	2760,00	3,10838079
3	0	2775,00	3,10826612
3	0	2790,00	3,10811329
3	0	2805,00	3,10803699
3	0	2820,00	3,10788417
3	0	2835,00	3,10790324
3	0	2850,00	3,10759783
3	0	2865,00	3,10765505
3	0	2880,00	3,10750222
3	0	2895,00	3,10738778
3	0	2910,00	3,10740685
3	0	2925,00	3,10723495
3	0	2940,00	3,10723495
3	0	2955,00	3,10706306
3	0	2970,00	3,10689139
3	0	2985,00	3,10687232
3	0	3000,00	3,10675764
3	0	3015,00	3,10656667
3	0	3030,00	3,10654759
3	0	3045,00	3,10645223
3	0	3060,00	3,10622287
3	0	3075,00	3,10631847
3	0	3090,00	3,10620379
3	0	3105,00	3,10605121
3	0	3120,00	3,10584116
3	0	3135,00	3,10587931
3	0	3150,00	3,10584116
3	0	3165,00	3,10559297
3	0	3180,00	3,10555458
3	0	3195,00	3,10544014
3	0	3210,00	3,10540199
3	0	3225,00	3,10523009
3	0	3240,00	3,10524917
3	0	3255,00	3,10515356
3	0	3270,00	3,10494351
3	0	3285,00	3,10484815
3	0	3300,00	3,10479093
3	0	3315,00	3,10479093
3	0	3330,00	3,10465717
3	0	3345,00	3,10454273
3	0	3360,00	3,10431337
3	0	3375,00	3,10425615
3	0	3390,00	3,10417986
3	0	3405,00	3,10414171
3	0	3420,00	3,10400796
3	0	3435,00	3,10393167
3	0	3450,00	3,10379791
3	0	3465,00	3,10368347
3	0	3480,00	3,10360694
3	0	3495,00	3,10356879
3	0	3510,00	3,1034925
3	0	3525,00	3,10333967
3	0	3540,00	3,10333967
3	0	3555,00	3,10326338
3	0	3570,00	3,1030724
3	0	3585,00	3,10316777
3	0	3600,00	3,10291958