File: Experimentelles/Rohdaten/Batterietests/AlteZelle/Studenten_Batterietests/Sonstige/ZView-Export/S vs Li_02_CV_C02_loop4.txt
EC-Lab ASCII FILE
Nb header lines : 3
mode	ox/red	error	control changes	counter inc.	time/s	control/V	Ewe/V	<I>/mA	cycle number	(Q-Qo)/C	P/W
2	0	0	1	0	6560,53	2,39255285	2,39302468	-0,044455107301473619	5	0	0,000106382169
2	0	0	0	0	6567,05	2,32734323	2,32804465	-0,40551216729606221	5	-0,00142744847	0,000944050436
2	0	0	0	0	6573,55	2,26233459	2,26277494	-0,84163043492784346	5	-0,00544200605	0,00190442021
2	0	0	1	0	6580,08	2,1970253	2,19749522	-1,3205600629250221	5	-0,0124970712	0,00290192454
2	0	0	1	0	6586,58	2,13201666	2,13233542	-1,8086875267326867	5	-0,0226521846	0,00385672855
2	0	0	0	0	6593,08	2,06700754	2,06755614	-2,298907607793801	5	-0,0359795056	0,00475312071
2	0	0	0	0	6599,58	2,00199866	2,00260639	-2,8310484246661219	5	-0,0526229665	0,00566947553
2	0	0	1	0	6606,08	1,93699002	1,9375869	-3,3622308547297875	5	-0,0727412999	0,00651461445
2	0	0	1	0	6612,58	1,87198091	1,87242711	-3,8718267579873427	5	-0,0962694213	0,00724971341
2	0	0	0	0	6619,08	1,80697227	1,80754828	-4,3397379166182778	5	-0,123013735	0,00784428604
2	0	0	0	0	6625,59	1,74196315	1,74252808	-4,6672067853311834	5	-0,15238525	0,00813273899
2	0	0	0	0	6632,09	1,67695403	1,67757881	-4,9370458858708589	5	-0,183500811	0,00828228332
2	0	0	1	0	6638,59	1,61194539	1,61236894	-5,3568787649273933	5	-0,217081174	0,0086372653
2	0	0	1	0	6645,09	1,54693639	1,54767978	-5,747967687745888	5	-0,253169686	0,00889601372
2	0	0	0	0	6651,59	1,48192751	1,48254001	-6,13218545665344	5	-0,291827381	0,00909121055
2	0	0	0	0	6658,09	1,41691864	1,41755056	-6,4434463779131622	5	-0,332669824	0,00913391076
2	0	0	1	0	6664,59	1,35190964	1,35247087	-6,7611547037959066	5	-0,375472546	0,0091442652
2	0	0	1	0	6671,09	1,28690076	1,28716087	-7,0230257610479898	5	-0,420229197	0,00903976429
2	0	0	0	0	6677,59	1,22189176	1,22237158	-7,327899123231575	5	-0,466853917	0,00895741582
2	0	0	0	0	6684,09	1,156883	1,15748227	-7,5271748130520422	5	-0,515184283	0,00871257111
2	0	0	1	0	6690,59	1,091874	1,09254289	-7,7168682267268454	5	-0,564729691	0,00843100995
2	0	0	1	0	6697,10	1,02686512	1,02741301	-7,8534187749028275	5	-0,615276754	0,00806870498
2	0	0	1	0	6703,60	0,961856961	0,962143302	-8,2026598594714534	5	-0,667779565	0,0078921346
2	0	0	0	0	6710,10	0,896847427	0,897243798	-8,3203150679668173	5	-0,721387088	0,00746535091
2	0	0	0	0	6716,60	0,831838369	0,832404435	-8,4576946496963507	5	-0,775871158	0,00704022264
2	0	0	1	0	6723,10	0,76682955	0,767234683	-8,5975177213549619	5	-0,831096113	0,00659631379
2	0	0	1	0	6729,60	0,701820672	0,702195108	-8,6716302459438733	5	-0,887191236	0,00608917652
2	0	0	0	0	6736,10	0,636811733	0,637365758	-8,8126325234770496	5	-0,944117785	0,00561687024
2	0	0	0	0	6742,60	0,571802855	0,572426319	-8,9003261476755136	5	-1,00193632	0,00509478105
2	0	0	1	0	6749,10	0,506793916	0,507446766	-8,9323280677199078	5	-1,05999124	0,00453268085
2	1	0	0	0	6755,56	0,557800889	0,558206797	-8,2091749459505075	5	-1,11556125	0,0045824172
2	1	0	0	0	6762,07	0,622809827	0,623336434	-7,6257386629779981	5	-1,1669215	0,00475340057
2	1	0	1	0	6768,57	0,687818706	0,688225865	-7,1418476204077466	5	-1,21496272	0,00491520436
2	1	0	1	0	6775,07	0,752827644	0,753425658	-6,6998423039912896	5	-1,26003611	0,00504783308
2	1	0	0	0	6781,57	0,817836523	0,818315029	-6,2124696783721664	5	-1,3020308	0,00508375745
2	1	0	0	0	6788,07	0,882845461	0,883354664	-5,7892438458899699	5	-1,34106243	0,00511395559
2	1	0	0	0	6794,57	0,947853565	0,948392808	-5,4031199730213683	5	-1,37759495	0,00512428023
2	1	0	1	0	6801,07	1,01286328	1,01339388	-4,9890658160050944	5	-1,41129661	0,00505588856
2	1	0	1	0	6807,57	1,07787216	1,07849348	-4,5873580910265446	5	-1,44241321	0,00494743558
2	1	0	0	0	6814,07	1,14288116	1,1434629	-4,2194428232809005	5	-1,47100258	0,0048247762
2	1	0	0	0	6820,57	1,20789003	1,2083323	-3,8462003916501997	5	-1,49725866	0,00464748824
2	1	0	1	0	6827,07	1,27289891	1,27336192	-3,4972730477651053	5	-1,52117348	0,00445329444
2	1	0	1	0	6833,57	1,33790779	1,33826137	-3,1710029244422912	5	-1,5428611	0,00424363092
2	1	0	0	0	6840,08	1,40291679	1,40352118	-2,8561579616119453	5	-1,56244636	0,00400867825
2	1	0	0	0	6846,58	1,46792567	1,46838057	-2,5476534701883757	5	-1,5799979	0,00374092488
2	1	0	1	0	6853,08	1,53293443	1,53338015	-2,2350816950202006	5	-1,59553158	0,00342722982
2	1	0	1	0	6859,58	1,59794331	1,59841955	-1,9501243090877978	5	-1,60915446	0,00311711687
2	1	0	0	0	6866,08	1,66295242	1,66362941	-1,6738943234085965	5	-1,62093568	0,00278473971
2	1	0	0	0	6872,58	1,72796118	1,72849894	-1,4077383096640333	5	-1,63090801	0,00243327417
2	1	0	1	0	6879,08	1,79297006	1,79351842	-1,1559401356304698	5	-1,63915944	0,00207319995
2	1	0	1	0	6885,58	1,85797894	1,85849786	-0,88254998686413261	5	-1,64577639	0,00164021726
2	1	0	1	0	6892,08	1,92298794	1,92362773	-0,6235868295965079	5	-1,65065312	0,00119954895
2	1	0	0	0	6898,62	1,98839688	1,98920786	-0,36996295380716627	5	-1,65389538	0,000735933194
2	1	0	0	0	6905,12	2,05340576	2,0540576	-0,1324327279192703	5	-1,65552473	0,000272024452
2	1	0	1	0	6911,79	2,12001491	2,12063909	0,10237569187302142	5	-1,65562057	0,0002171019
2	1	0	1	0	6918,29	2,18502402	2,18563843	0,33237294286178989	5	-1,65420938	0,000726447091
2	1	0	0	0	6924,79	2,25003266	2,25054789	0,55814702513938208	5	-1,65131652	0,00125613657
2	1	0	0	0	6931,29	2,31504178	2,31552744	0,78613282709071795	5	-1,64693594	0,00182031211
2	1	0	1	0	6937,82	2,38035059	2,3809576	1,0169408048192654	5	-1,64105487	0,00242129294
2	1	0	1	0	6944,32	2,44535947	2,44600725	1,254778775696952	5	-1,63366354	0,00306919799
2	1	0	0	0	6950,82	2,51036859	2,51067638	1,506492466665801	5	-1,62468433	0,00378231495
2	1	0	0	0	6957,32	2,57537723	2,57586646	1,7718872452775613	5	-1,6140244	0,00456414511
2	1	0	1	0	6963,82	2,64038634	2,64080572	2,0499444827437331	5	-1,60162961	0,00541350525
2	1	0	1	0	6970,32	2,70539522	2,70589519	2,3035775019476858	5	-1,58749747	0,00623323908
2	1	0	0	0	6976,82	2,7704041	2,77081466	2,5765727044393606	5	-1,5715822	0,00713920547
2	1	0	0	0	6983,33	2,83541298	2,83587456	2,8751537892967427	5	-1,55384648	0,00815357547
2	1	0	0	0	6989,83	2,90042114	2,90064192	3,1773723619628243	5	-1,53416574	0,00921641942
2	1	0	1	0	6996,33	2,96543074	2,96576333	3,4601761462787693	5	-1,51255786	0,0102620637
2	1	0	1	0	7002,83	3,03043985	3,03112316	3,8148694003842406	5	-1,48894227	0,0115633393
2	1	0	0	0	7009,33	3,09544873	3,09622312	4,2015606450537747	5	-1,46290576	0,0130089689
2	1	0	0	0	7015,83	3,16045761	3,16087222	4,5994300519426618	5	-1,43432987	0,0145382108
2	1	0	1	0	7022,33	3,22546649	3,22601151	4,878272003183767	5	-1,4035182	0,0157373622
2	1	0	1	0	7028,83	3,29047537	3,29102111	5,2038568916420013	5	-1,37070692	0,0171260033
2	1	0	0	0	7035,33	3,35548401	3,35584044	5,4864486381411411	5	-1,33598673	0,0184116457
2	1	0	0	0	7041,83	3,42049289	3,42110038	5,8367373260358874	5	-1,29931211	0,0199680645
2	1	0	1	0	7048,33	3,48550224	3,48614001	6,2206455034514291	5	-1,26016688	0,0216860417
2	1	0	1	0	7054,84	3,55051112	3,55110979	6,6852504039804045	5	-1,2181685	0,0237400588
2	1	0	0	0	7061,34	3,61552	3,61595893	6,8820388590296346	5	-1,17386901	0,0248851702
2	1	0	0	0	7067,84	3,68052864	3,68112826	7,8196820517380915	5	-1,12584198	0,0287852529
2	1	0	1	0	7074,34	3,74553752	3,74599791	8,179412916302688	5	-1,07350063	0,0306400638
2	1	0	1	0	7080,84	3,8105464	3,81105757	8,842148922383799	5	-1,01836133	0,0336979404
2	1	0	1	0	7087,34	3,87555456	3,87599564	9,6399466811055565	5	-0,958641768	0,0373643897
2	1	0	0	0	7093,88	3,9409647	3,94152737	10,180564917623994	5	-0,894156396	0,0401269756
2	1	0	1	0	7100,38	4,00597429	4,00633717	11,083289040516256	5	-0,825867236	0,0444033928
2	1	0	1	0	7106,88	4,07098198	4,07163715	12,443104967474896	5	-0,749894977	0,0506638102
2	1	0	1	0	7113,38	4,13599205	4,13656712	13,35203004238815	5	-0,666413367	0,0552315675
2	0	0	0	1	7119,81	4,19969988	4,20012331	13,864439740777016	5	-0,578055143	0,0582323559
2	0	0	1	1	7126,32	4,13469076	4,13511372	12,334612928330885	5	-0,493216336	0,0510050282
2	0	0	1	1	7132,82	4,06968212	4,07000446	10,929329266150746	5	-0,417725533	0,0444824174
2	0	0	0	1	7139,32	4,004673	4,00516558	9,6791400040189325	5	-0,350471258	0,0387665592
2	0	0	0	1	7145,82	3,93966436	3,94027591	8,2011693616708211	5	-0,292670906	0,0323148705
2	0	0	1	1	7152,32	3,87465525	3,87507582	7,0015757506091917	5	-0,243403167	0,0271316376
2	0	0	1	1	7158,82	3,80964637	3,8100965	6,0464430103699379	5	-0,2011507	0,0230375305
2	0	0	1	1	7165,32	3,74463677	3,74508619	5,2996501425743821	5	-0,164382532	0,0198476464
2	0	0	0	1	7171,86	3,67922878	3,67963672	4,6401973279813869	5	-0,131917953	0,0170742404
2	0	0	0	1	7178,36	3,6142199	3,61472702	4,0990930510063846	5	-0,103579	0,0148171028
2	0	0	1	1	7184,86	3,54921055	3,54963756	3,61627466728288	5	-0,0785716698	0,0128364647
2	0	0	1	1	7191,36	3,48420167	3,48447776	3,2224041161437779	5	-0,0564482957	0,0112283956
2	0	0	0	1	7197,87	3,41919279	3,41959834	2,9193776212632621	5	-0,0364892446	0,00998309907
2	0	0	0	1	7204,37	3,35418415	3,35460901	2,6315927530328461	5	-0,0184763279	0,00882796478
2	0	0	1	1	7210,87	3,28917527	3,28961945	2,3805710698167459	5	-0,00221492047	0,00783117302
2	0	0	1	1	7217,37	3,22416639	3,2245698	2,1665243792037181	5	0,0125648612	0,00698610907
2	0	0	0	1	7223,87	3,15915704	3,1595304	1,9771580367038624	5	0,0260295346	0,00624689087
2	0	0	0	1	7230,37	3,09414864	3,09462118	1,801058687890567	5	0,0383021124	0,00557359448
2	0	0	1	1	7236,87	3,02913952	3,02947092	1,6344057240833802	5	0,0494749211	0,00495138438
2	0	0	1	1	7243,37	2,96413088	2,96481204	1,4802923525373152	5	0,0595960319	0,00438878872
2	0	0	1	1	7249,87	2,89912271	2,89961338	1,3314659217145781	5	0,0687301084	0,0038607365
2	0	0	0	1	7256,37	2,83411312	2,83457255	1,1800054293125843	5	0,0768915787	0,00334481103
2	0	0	0	1	7262,87	2,769104	2,76963305	1,03984045051038	5	0,0841143802	0,00287997653
2	0	0	1	1	7269,38	2,70409489	2,7045536	0,90047685460497997	5	0,0904246867	0,00243538781
2	0	0	1	1	7275,88	2,63908601	2,6394639	0,75949235012134067	5	0,0958137214	0,00200465275
2	0	0	0	1	7282,38	2,57407737	2,57450438	0,59769298586373414	5	0,100240231	0,00153876317
2	0	0	0	1	7288,92	2,50866818	2,50902414	0,40725901583209555	5	0,103546858	0,00102182268
2	0	0	1	1	7295,42	2,44365931	2,44423485	0,17567343928385498	5	0,105466165	0,000429387146
2	0	0	0	1	7300,49	2,39285278	2,39334512	-0,041875032149255366	5	0,105820507	0,000100221405