File: Experimentelles/Rohdaten/Batterietests/AlteZelle/Studenten_Batterietests/Sonstige/ZView-Export/S vs Li_05_GCPL_C02_loop1.txt
EC-Lab ASCII FILE
Nb header lines : 3
mode	ox/red	error	control changes	Ns changes	counter inc.	Ns	time/s	control/V/mA	Ewe/V	dq/mA.h	<I>/mA	P/W	(Q-Qo)/mA.h	x	Capacity/mA.h
1	0	0	1	1	0	1	82050,01	-0,100000001	2,34276867	0	0	0	0	0	0
1	0	0	1	0	0	1	83150,03	-0,100000001	2,20681357	-0,00027771323539358045	-0,09997478908165952	0,00022062572	-0,030547001318498867	0,0011397496900732747	0,030547001318498867
1	0	0	1	0	0	1	84250,05	-0,100000001	2,14963174	-0,00027771485672808352	-0,099975372472387802	0,000214910237	-0,061095435298778368	0,0022795528346838192	0,061095435298778368
1	0	0	1	0	0	1	85350,07	-0,100000001	2,09859133	-0,00027771472115400765	-0,099975323573577664	0,000209807346	-0,09164398527238336	0,0034193603071612922	0,09164398527238336
1	0	0	1	0	0	1	86450,10	-0,100000001	2,06115031	-0,00027771489299088717	-0,099975385442942349	0,000206064302	-0,12219259544542832	0,0045591700257608096	0,12219259544542832
1	0	0	1	0	0	1	87550,12	-0,100000001	2,05025935	-0,00027771493836782045	-0,099975402140270912	0,000204975498	-0,15274123484034403	0,0056989808346676147	0,15274123484034403
1	0	0	1	0	0	1	88650,14	-0,100000001	2,05487514	-0,00027771574370231894	-0,099975692054961203	0,000205437565	-0,18328991532574525	0,00683879317671568	0,18328991532574525
1	0	0	1	0	0	1	89750,16	-0,100000001	2,06103587	-0,00027771351624321606	-0,099974890065655066	0,000206051831	-0,21383853920042717	0,0079786034065416934	0,21383853920042717
1	0	0	1	0	0	1	90850,18	-0,100000001	2,06162715	-0,0002777135451688535	-0,099974900227289728	0,00020611097	-0,24438715949654944	0,0091184135028468365	0,24438715949654944
1	0	0	1	0	0	1	91950,20	-0,100000001	2,06038737	-0,00027771369569210544	-0,099974954413425574	0,000205987133	-0,27493570890315315	0,010258220954168731	0,27493570890315315
1	0	0	1	0	0	1	93050,23	-0,100000001	2,05880427	-0,00027771461138212019	-0,099975284269607898	0,000205829536	-0,30548426285619546	0,011398028575124358	0,30548426285619546
1	0	0	1	0	0	1	94150,25	-0,100000001	2,05680156	-0,00027771405191057261	-0,099975083021967974	0,000205628909	-0,33603278502101069	0,012537835010018496	0,33603278502101069
1	0	0	1	0	0	1	95250,27	-0,100000001	2,05353999	-0,00027771394963024394	-0,099975046202941107	0,000205302757	-0,36658133326478662	0,013677642417953723	0,36658133326478662
1	0	0	1	0	0	1	96350,29	-0,100000001	2,04968715	-0,00027771434940977232	-0,099975189794851686	0,000204917858	-0,39712988702874157	0,01481745003185425	0,39712988702874157
1	0	0	1	0	0	1	97450,31	-0,100000001	2,04573894	-0,00027771537865863904	-0,099975560269402739	0,000204523894	-0,42767855396368102	0,015957261868316368	0,42767855396368102
1	0	0	1	0	0	1	98550,34	-0,100000001	2,041085	-0,00027771601049767603	-0,099975787782825011	0,000204059077	-0,45822722089033197	0,017097073704469229	0,45822722089033197
1	0	0	1	0	0	1	99650,36	-0,100000001	2,0356493	-0,00027771587530523536	-0,09997573943223872	0,000203515548	-0,48877590626271712	0,018236886228857235	0,48877590626271712
1	0	0	1	0	0	1	100750,38	-0,100000001	2,02887821	-0,00027771481645603974	-0,099975358254060979	0,000202837822	-0,51932453781893293	0,01937669674529161	0,51932453781893293
1	0	0	1	0	0	1	101850,40	-0,100000001	2,02214527	-0,00027771380310133101	-0,099974993285982042	0,000202163967	-0,54987316650145677	0,020516507154504669	0,54987316650145677
1	0	0	1	0	0	1	102950,42	-0,100000001	2,01504993	-0,00027771407442291578	-0,099975090753822477	0,000201454794	-0,58042172585480973	0,021656314976953146	0,58042172585480973
1	0	0	1	0	0	1	104050,44	-0,100000001	2,00587559	-0,00027771328890861738	-0,099974807974264282	0,000200537033	-0,61097024478908557	0,02279612129131152	0,61097024478908557
1	0	0	1	0	0	1	105150,47	-0,100000001	1,99603367	-0,00027771367925074368	-0,099974948756515994	0,000199553368	-0,64151869948524186	0,023935925208859277	0,64151869948524186
1	0	0	1	0	0	1	106250,49	-0,100000001	1,98226273	-0,00027771251884847878	-0,099974531131684262	0,000198175781	-0,6720671395462935	0,025075728580351606	0,6720671395462935
1	0	0	1	0	0	1	107350,51	-0,100000001	1,96322751	-0,00027771274797038902	-0,099974613603467456	0,000196272915	-0,70261559326394829	0,026215532461390163	0,70261559326394829
1	0	0	1	0	0	1	108450,53	-0,100000001	1,92803717	-0,00027771314460163315	-0,099974756029432102	0,000192755047	-0,7331640105589399	0,027355334983450182	0,7331640105589399
1	0	0	1	0	0	1	109550,55	-0,100000001	1,58221781	-0,00027771271060821085	-0,099974599791396582	0,000158181589	-0,76371243663854605	0,028495137833275981	0,76371243663854605
1	0	0	1	0	0	1	110650,57	-0,100000001	1,08840811	-0,00027771328247628278	-0,099974805762251085	0,000108813387	-0,79426092227639552	0,029634942905299917	0,79426092227639552
1	1	0	0	0	0	2	111735,91	0,100000001	2,31692433	0,00027781074312825997	0,10000989113987242	0,000231715356	-0,77273782735108685	0,02883188729552775	0,025836425684041856
1	1	0	0	0	0	2	112835,93	0,100000001	2,31879354	0,00027781059646896186	0,10000983800477323	0,000231902159	-0,74217861825556006	0,027691682116880032	0,056395634779568755
1	1	0	0	0	0	2	113935,96	0,100000001	2,32602215	0,0002778110347874463	0,10000999579630883	0,000232625462	-0,71161940036362483	0,02655147661002649	0,086954852671504038
1	1	0	0	0	0	2	115035,98	0,100000001	2,32844448	0,00027781161645758483	0,10001020532265155	0,000232868217	-0,68106014627644646	0,025411269752679763	0,11751410675868227
1	1	0	0	0	0	2	116136,00	0,100000001	2,32688046	0,00027781177167842784	0,10001026144321459	0,000232711929	-0,65050089657633907	0,024271063059020544	0,1480733564587897
1	1	0	0	0	0	2	117236,02	0,100000001	2,32548809	0,00027781198070032726	0,10001033669077565	0,000232572842	-0,6199416856492064	0,023130857812033149	0,17863256738592211
1	1	0	0	0	0	2	118336,04	0,100000001	2,32558346	0,00027781065854968291	0,10000986048378653	0,000232581282	-0,58938245667210701	0,021990651891577229	0,2091917963630217
1	1	0	0	0	0	2	119436,06	0,100000001	2,3272047	0,00027781106805097722	0,10001000777094328	0,000232743754	-0,55882321377586355	0,020850445451779325	0,23975103925926515
1	1	0	0	0	0	2	120536,09	0,100000001	2,33061886	0,00027781156910417805	0,10001018814536618	0,000233085637	-0,52826398109330419	0,019710239393067712	0,27031027194182429
1	1	0	0	0	0	2	121636,11	0,100000001	2,33430004	0,00027781162801881629	0,10001020968952046	0,000233453829	-0,49770475977268589	0,018570033758285392	0,30086949326244166
1	1	0	0	0	0	2	122736,13	0,100000001	2,3388586	0,00027781160025505555	0,10001019973318434	0,000233909712	-0,46714551701321338	0,017429827323590602	0,33142873602191418
1	1	0	0	0	0	2	123836,15	0,100000001	2,34286404	0,0002778100394772159	0,10000963778509698	0,000234308987	-0,43658631626428685	0,01628962245636576	0,3619879367708407
1	1	0	0	0	0	2	124936,17	0,100000001	2,34803295	0,000277811079059624	0,10001001173281354	0,000234826803	-0,40602715081213453	0,015149418906111021	0,39254710222299302
1	1	0	0	0	0	2	126036,19	0,100000001	2,3536787	0,00027781122926912368	0,10001006580716464	0,000235391562	-0,37546795965890675	0,014009214396914606	0,42310629337622074
1	1	0	0	0	0	2	127136,22	0,100000001	2,35917187	0,00027781019834097888	0,10000969485849712	0,000235940053	-0,34490875146743392	0,012869009251998358	0,45366550156769357
1	1	0	0	0	0	2	128236,24	0,100000001	2,36327267	0,00027781080891523101	0,10000991485647707	0,000236350694	-0,31434954190776429	0,011728804056032845	0,48422471112736326
1	1	0	0	0	0	2	129336,26	0,100000001	2,36729693	0,00027781193789798349	0,10001032128223638	0,000236754131	-0,28379031587648074	0,010588598245489274	0,5147839371586471
1	1	0	0	0	0	2	130436,28	0,100000001	2,37410617	0,00027781189388616218	0,10001030515305251	0,000237435088	-0,25323111446807568	0,0094483933536584038	0,54534313856705216
1	1	0	0	0	0	2	131536,29	0,100000001	2,37837863	0,00027780532313262422	0,10000990067997638	0,000237861415	-0,22267213504009021	0,0083081967442154445	0,57590211799503731
1	1	0	0	0	0	2	132636,29	0,100000001	2,3894794	0,00027780570788847078	0,10001003919205947	0,00023897193	-0,19211348578400656	0,0071680124539300634	0,60646076725112102
1	1	0	0	0	0	2	133736,29	0,100000001	2,39611697	0,00027780598724136755	0,10001013975908656	0,000239635992	-0,1615548440758295	0,0060278284452672243	0,63701940895929766
1	1	0	0	0	0	2	134836,29	0,100000001	2,40168643	0,00027780691287335418	0,10001047298654963	0,000240193796	-0,13099620674021875	0,0048876445997507142	0,66757804629490893
1	1	0	0	0	0	2	135936,30	0,100000001	2,40681696	0,00027780590861042346	0,10001011145195112	0,000240706038	-0,10043755847439293	0,003747460346413184	0,69813669456073434
1	1	0	0	0	0	2	137036,30	0,100000001	2,41059351	0,00027780614080942339	0,10001019504357802	0,000241083922	-0,069878941504342259	0,0026072772607631021	0,72869531153078502
1	1	0	0	0	0	2	138136,30	0,100000001	2,41602945	0,0002778059360223512	0,10001012132024357	0,000241627393	-0,039320332588225184	0,0014670944756161107	0,75925392044690189
1	1	0	0	0	0	2	139236,30	0,100000001	2,42131281	0,00027780592938388387	0,1000101189303957	0,000242155787	-0,008761799977851401	0,00032691453753899603	0,78981245305727565
1	1	0	0	0	0	2	140336,30	0,100000001	2,41925287	0,00027780416110778851	0,10000948235110096	0,000241948233	0,021796779619326205	-0,00081326715367894362	0,82037103265445274
1	1	0	0	0	0	2	141436,30	0,100000001	2,42777872	0,00027780483413653242	0,10000972464141086	0,000242801485	0,052355340032713306	-0,0019534481291238666	0,85092959306783974
1	1	0	0	0	0	2	142536,30	0,100000001	2,43495035	0,00027780553235237795	0,10000997599907594	0,000243519331	0,082913932644798131	-0,0030936303059454931	0,8814881856799241
1	1	0	0	0	0	2	143636,30	0,100000001	2,44288492	0,00027780599561788973	0,10001014277463408	0,000244313269	0,11347255796865742	-0,0042338137032874067	0,91204681100378266
1	1	0	0	0	0	2	144736,30	0,100000001	2,45043778	0,00027780486197438502	0,10000973466303626	0,00024506764	0,14403123838801837	-0,0053739991563165638	0,9426054914231433
1	1	0	0	0	0	2	145836,30	0,100000001	2,45039964	0,00027780488651825322	0,10000974349882741	0,000245063828	0,1745898925540024	-0,0065141836297969306	0,97316414558912742
1	1	0	0	0	0	2	146805,89	0,100000001	2,45966935	0,0002665491483422617	0,10001008712225898	0,000245991745	0,20152583500684739	-0,0075191998584723776	1,0001000880419722