File: Experimentelles/Rohdaten/Batterietests/AlteZelle/Studenten_Batterietests/Sonstige/ZView-Export/S vs Li_05_GCPL_C02_loop5.txt
EC-Lab ASCII FILE
Nb header lines : 3
mode	ox/red	error	control changes	Ns changes	counter inc.	Ns	time/s	control/V/mA	Ewe/V	dq/mA.h	<I>/mA	P/W	(Q-Qo)/mA.h	x	Capacity/mA.h
1	0	0	1	1	0	1	340189,57	-0,100000001	2,46388459	0	0	0	0	0	0
1	0	0	1	0	0	1	341279,59	-0,100000001	2,14223123	-0,00027771190018951894	-0,099974359066488653	0,000214168191	-0,030269108706281997	0,0011293811430808725	0,030269108706281997
1	0	0	1	0	0	1	342369,61	-0,100000001	2,12710595	-0,00027771277361984054	-0,099974673500005453	0,000212656727	-0,060539677304771789	0,002258816756702864	0,060539677304771789
1	0	0	1	0	0	1	343459,63	-0,100000001	2,10435152	-0,00027771187589441738	-0,09997435032042048	0,000210381171	-0,0908102752790096	0,0033882534663735098	0,0908102752790096
1	0	0	1	0	0	1	344549,65	-0,100000001	2,08811998	-0,00027771146975912986	-0,09997420411685984	0,000208758138	-0,12108084689256643	0,004517689192491705	0,12108084689256643
1	0	0	1	0	0	1	345639,67	-0,100000001	2,07000041	-0,00027771108588617706	-0,099974065927585357	0,000206946352	-0,15135140166363664	0,0056471242901940813	0,15135140166363664
1	0	0	1	0	0	1	346729,69	-0,100000001	2,04573894	-0,00027771225657603808	-0,099974487363165197	0,000204521697	-0,18162200941802874	0,006776561364775433	0,18162200941802874
1	0	0	1	0	0	1	347819,72	-0,100000001	2,00352955	-0,00027771104570147066	-0,099974051459041933	0,000200300972	-0,2118925774899641	0,0079059969587509696	0,2118925774899641
1	0	0	1	0	0	1	348909,74	-0,100000001	1,97116208	-0,00027771269053386317	-0,09997464358962953	0,000197066227	-0,2421630975647336	0,0090354307618877171	0,2421630975647336
1	0	0	1	0	0	1	349999,76	-0,100000001	1,95491147	-0,00027771093482772512	-0,099974011542934426	0,000195440341	-0,27243360139150902	0,010164863958789958	0,27243360139150902
1	0	0	1	0	0	1	351089,78	-0,100000001	1,95197427	-0,00027770956167454522	-0,09997351721963552	0,000195145738	-0,30270404480102208	0,011294294901442909	0,30270404480102208
1	0	0	1	0	0	1	352179,80	-0,100000001	1,95311868	-0,00027771032038620778	-0,099973790352902579	0,000195260684	-0,33297441606457485	0,01242372315223308	0,33297441606457485
1	0	0	1	0	0	1	353269,82	-0,100000001	1,95279443	-0,00027771030926538838	-0,099973786349484685	0,000195228247	-0,36324477411418368	0,013553150909993238	0,36324477411418368
1	0	0	1	0	0	1	354359,84	-0,100000001	1,95128763	-0,0002777105268426239	-0,099973864673453645	0,000195077766	-0,39351510950181773	0,014682577822204646	0,39351510950181773
1	0	0	1	0	0	1	355449,86	-0,100000001	1,94680536	-0,00027770917636238867	-0,099973378512257651	0,000194628708	-0,42378548440591629	0,015812006208828477	0,42378548440591629
1	0	0	1	0	0	1	356539,88	-0,100000001	1,94447839	-0,00027771073501515722	-0,099973939616450317	0,000194397158	-0,45405586632626592	0,016941434857238064	0,45405586632626592
1	0	0	1	0	0	1	357629,90	-0,100000001	1,93221426	-0,00027771077080112365	-0,099973952495658688	0,000193171101	-0,48432631840349792	0,018070866123295264	0,48432631840349792
1	0	0	1	0	0	1	358719,93	-0,100000001	1,92733145	-0,00027771062985807658	-0,099973901760630208	0,000192682841	-0,51459675768355629	0,019200296911872707	0,51459675768355629
1	0	0	1	0	0	1	359809,95	-0,100000001	1,92059851	-0,00027771042025875712	-0,099973826306328064	0,000192009582	-0,54486716397980384	0,020329726469779821	0,54486716397980384
1	0	0	1	0	0	1	360899,97	-0,100000001	1,91378927	-0,00027770838758928912	-0,099973094553590208	0,000191327432	-0,5751375096209488	0,021459153764563507	0,5751375096209488
1	0	0	1	0	0	1	361989,99	-0,100000001	1,90305102	-0,00027770911414217619	-0,099973356113412442	0,000190254403	-0,60540784715886541	0,022588580757004851	0,60540784715886541
1	0	0	1	0	0	1	363080,01	-0,100000001	1,89072967	-0,00027770936958698758	-0,099973448071773901	0,000189022758	-0,63567810431658906	0,02371800475035312	0,63567810431658906
1	0	0	1	0	0	1	364170,03	-0,100000001	1,8763864	-0,00027770977169358067	-0,099973592823868685	0,000187589088	-0,66594843974125069	0,024847431663946077	0,66594843974125069
1	0	0	1	0	0	1	365260,05	-0,100000001	1,85603511	-0,0002777103181046744	-0,099973789531566387	0,000185554862	-0,69621884513830029	0,025976861188302912	0,69621884513830029
1	0	0	1	0	0	1	366350,07	-0,100000001	1,8223325	-0,00027770973613858224	-0,099973580027807168	0,000182185104	-0,72648926127856563	0,027106291113503562	0,72648926127856563
1	0	0	1	0	0	1	367440,09	-0,100000001	1,56295371	-0,00027770958267566234	-0,099973524778728294	0,000156253998	-0,75675966262796902	0,02823572048683727	0,75675966262796902
1	0	0	1	0	0	1	368530,11	-0,100000001	1,11015177	-0,00027771065712140669	-0,099973911575240064	0,000110986213	-0,78703008155852928	0,029365150516147584	0,78703008155852928
1	1	0	0	0	0	2	369606,20	0,100000001	2,46672654	0,00027781156613181037	0,10001023811952112	0,00024669792	-0,76969425149405376	0,028718327388170586	0,023614000021262714
1	1	0	0	0	0	2	370696,23	0,100000001	2,44021463	0,00027781043236578502	0,10000982996695386	0,000244045455	-0,73941281171911091	0,027588486156338672	0,053895439796205613
1	1	0	0	0	0	2	371786,25	0,100000001	2,44154978	0,0002778112449807425	0,1000101225050343	0,000244179682	-0,70913139409033126	0,026458645750809898	0,084176857424985126
1	1	0	0	0	0	2	372876,27	0,100000001	2,44553614	0,00027781150066811178	0,10001021455304339	0,000244578579	-0,67884998082368947	0,025328805508038336	0,11445827069162696
1	1	0	0	0	0	2	373966,29	0,100000001	2,45062852	0,00027781182293428314	0,10001033056197426	0,000245088158	-0,64856853968272794	0,024198964225238435	0,14473971183258931
1	1	0	0	0	0	2	375056,31	0,100000001	2,45358491	0,00027781193829327824	0,10001037209274134	0,000245383941	-0,61828708707986048	0,023069122514779418	0,17502116443545677
1	1	0	0	0	0	2	376146,33	0,100000001	2,44175959	0,00027781154201386704	0,10001022943722869	0,000244200928	-0,58800560466590208	0,021939279692028512	0,205302646849416
1	1	0	0	0	0	2	377236,35	0,100000001	2,4372201	0,00027781093765546877	0,1000100118677375	0,000243746414	-0,55772414705753248	0,020809437794807478	0,23558410445778595
1	1	0	0	0	0	2	378326,37	0,100000001	2,42846537	0,00027781111092451549	0,10001007424572178	0,000242871	-0,52744270497645632	0,019679596476930634	0,26586554653886275
1	1	0	0	0	0	2	379416,39	0,100000001	2,43140268	0,00027781085930226576	0,10000998366578454	0,000243164541	-0,49716131768047661	0,018549757203159402	0,29614693383484186
1	1	0	0	0	0	2	380506,41	0,100000001	2,453089	0,00027781163510556019	0,10001026294959296	0,000245334086	-0,46687990488406534	0,017419916977932781	0,32642834663125312
1	1	0	0	0	0	2	381596,44	0,100000001	2,46397996	0,00027781030434411434	0,1000097838823683	0,000246422103	-0,43659844879551514	0,01629007513741825	0,35670980271980333
1	1	0	0	0	0	2	382686,46	0,100000001	2,46289277	0,00027781095421397024	0,10001001783334026	0,000246313954	-0,4063170518226983	0,015160235502591213	0,38699119969262016
1	1	0	0	0	0	2	383776,48	0,100000001	2,47977281	0,00027781088448771171	0,10000999273237051	0,000248002063	-0,37603562739344422	0,014030394843327586	0,41727262412187424
1	1	0	0	0	0	2	384866,50	0,100000001	2,48820305	0,00027781112443407376	0,10001007911256189	0,000248845376	-0,34575417042761491	0,012900552970080592	0,44755408108770355
1	1	0	0	0	0	2	385956,52	0,100000001	2,4966526	0,00027781102744117382	0,10001004419462595	0,000249690347	-0,31547279655623616	0,011770714197199267	0,4778354549590823
1	1	0	0	0	0	2	387046,54	0,100000001	2,5014019	0,00027781072446165811	0,10000993512410045	0,000250165031	-0,28519141021220202	0,010640874958946405	0,50811684130311661
1	1	0	0	0	0	2	388136,56	0,100000001	2,50714302	0,00027781178034096957	0,10001031523100512	0,000250740151	-0,25490993791328848	0,0095110325136014221	0,53839831360203059
1	1	0	0	0	0	2	389226,58	0,100000001	2,5111866	0,00027781099648939238	0,1000100330521992	0,000251143851	-0,22462850675352634	0,0083811916032134912	0,56867974476179226
1	1	0	0	0	0	2	390316,60	0,100000001	2,51158714	0,00027781094668929779	0,10001001512451032	0,000251183868	-0,19434705917253069	0,0072513500801272589	0,59896119234278848
1	1	0	0	0	0	2	391406,62	0,100000001	2,5139904	0,00027781141830525469	0,10001018489949299	0,000251424644	-0,1640655960598937	0,0061215079775346048	0,62924265545542502
1	1	0	0	0	0	2	392496,65	0,100000001	2,49873161	0,00027781108643942413	0,10001006543358712	0,000249898323	-0,13378415328693088	0,0049916666338425421	0,65952409822838771
1	1	0	0	0	0	2	393586,67	0,100000001	2,51465797	0,00027781207784637811	0,10001042233321848	0,00025149202	-0,10350265008738698	0,0038618230355534957	0,68980560142793139
1	1	0	0	0	0	2	394676,69	0,100000001	2,5111866	0,00027781250388713341	0,1000105757014445	0,000251145218	-0,073221144297065626	0,0027319793405990576	0,72008710721825306
1	1	0	0	0	0	2	395766,71	0,100000001	2,50863075	0,00027781149082299734	0,10001021100887043	0,000250888697	-0,042939606856156781	0,0016021344647186461	0,75036864465916186
1	1	0	0	0	0	2	396856,73	0,100000001	2,52169609	0,00027781176468481616	0,10001030959722691	0,000252195605	-0,012658123084799914	0,00047229159132137811	0,7806501284305184
1	1	0	0	0	0	2	397946,75	0,100000001	2,53333068	0,0002778123996651007	0,10001053818281725	0,000253359758	0,017623373816178275	-0,00065755177195971418	0,8109316253314967
1	1	0	0	0	0	2	399036,77	0,100000001	2,54889464	0,00027781212462029526	0,10001043917150445	0,000254916085	0,047904868408206618	-0,001787395049090783	0,84121311992352512
1	1	0	0	0	0	2	400126,79	0,100000001	2,55644774	0,00027781190384965802	0,10001035969560534	0,000255671272	0,078186341398243443	-0,0029172375202225043	0,87149459291356173
1	1	0	0	0	0	2	401216,81	0,100000001	2,55301452	0,00027781267070894445	0,1000106357561401	0,000255328603	0,10846783810420349	-0,0040470808762272077	0,90177608961952218
1	1	0	0	0	0	2	402306,83	0,100000001	2,56417251	0,00027781240935168336	0,1000105416728305	0,000256444269	0,13874937494695902	-0,0051769257297897146	0,93205762646227789
1	1	0	0	0	0	2	403396,86	0,100000001	2,57981253	0,00027781212961466774	0,10001044096944392	0,000258008193	0,16903093756896336	-0,006306771545210656	0,96233918908428173
1	1	0	0	0	0	2	404486,88	0,100000001	2,6081748	0,00027781285467702483	0,10001070198395597	0,00026084538	0,19931251808255526	-0,007436618028190784	0,99262076959787392
1	1	0	0	0	0	2	404756,16	0,100000001	2,61586118	0,00025781027547683984	0,10001052599630314	0,000261613663	0,20679345324439251	-0,0077157417773032307	1,0001017047597112