File: Experimentelles/Rohdaten/Batterietests/AlteZelle/Studenten_Batterietests/Sonstige/ZView-Export/S vs Li_02_CV_C02_loop2.txt
EC-Lab ASCII FILE
Nb header lines : 3
mode	ox/red	error	control changes	counter inc.	time/s	control/V	Ewe/V	<I>/mA	cycle number	(Q-Qo)/C	P/W
2	0	0	1	0	5080,30	2,39125252	2,39142251	-0,062920480966567987	3	0	0,000150469452
2	0	0	0	0	5086,82	2,32604313	2,32647252	-0,50346215208992365	3	-0,00179044902	0,00117129087
2	0	0	0	0	5093,36	2,26063442	2,26115251	-1,0400165521229336	3	-0,00679615	0,00235163607
2	0	0	1	0	5099,86	2,19562531	2,19607282	-1,624141982446119	3	-0,0154617112	0,00356673403
2	0	0	1	0	5106,36	2,13061643	2,13095331	-2,1778618382910934	3	-0,0278016776	0,00464092195
2	0	0	0	0	5112,87	2,06560731	2,06609416	-2,7402351504812685	3	-0,043768324	0,00566158397
2	0	0	0	0	5119,37	2,00059867	2,00092411	-3,3470784736176429	3	-0,0635097772	0,00669725006
2	0	0	1	0	5125,87	1,93558967	1,93612492	-3,9761283174157146	3	-0,0872816965	0,0076982812
2	0	0	1	0	5132,37	1,87058091	1,87121546	-4,5861979040006989	3	-0,115123421	0,00858176406
2	0	0	0	0	5138,87	1,80557179	1,80614591	-5,1362810743351802	3	-0,146765217	0,00927687343
2	0	0	0	0	5145,37	1,74056292	1,74117625	-5,4972693050900998	3	-0,181198642	0,00957171433
2	0	0	0	0	5151,87	1,67555416	1,6760565	-5,9160517466564787	3	-0,218293801	0,00991563685
2	0	0	1	0	5158,37	1,61054504	1,61097693	-6,3343632196386752	3	-0,258141696	0,0102045126
2	0	0	1	0	5164,87	1,54553628	1,5461278	-6,6803373768925811	3	-0,300484508	0,0103286551
2	0	0	0	0	5171,37	1,4805274	1,48109806	-7,038296863436727	3	-0,344993293	0,0104244081
2	0	0	0	0	5177,87	1,4155184	1,41614854	-7,381364191571904	3	-0,391866416	0,0104531078
2	0	0	1	0	5184,38	1,35050964	1,35094893	-7,6703345974286349	3	-0,440766394	0,0103622302
2	0	0	1	0	5190,88	1,28550065	1,2859292	-7,8969595978657446	3	-0,491307944	0,0101549309
2	0	0	0	0	5197,38	1,22049177	1,22101986	-8,1217896913488806	3	-0,543442309	0,0099168662
2	0	0	0	0	5203,88	1,15548277	1,15593016	-8,3606112152338317	3	-0,596978426	0,00966428313
2	0	0	1	0	5210,38	1,09047389	1,09126103	-8,5899754092097638	3	-0,652065039	0,00937390514
2	0	0	1	0	5216,88	1,02546501	1,02623141	-8,7580652112761933	3	-0,708484471	0,00898780115
2	0	0	0	0	5223,38	0,960456073	0,960911512	-8,9634742985168858	3	-0,766054094	0,00861310586
2	0	0	0	0	5229,88	0,895447135	0,896002114	-9,136412908633559	3	-0,824912727	0,00818624534
2	0	0	0	0	5236,38	0,830438256	0,830912352	-9,2962065835794125	3	-0,884852707	0,00772433309
2	0	0	1	0	5242,88	0,765429378	0,765902817	-9,4190197661519117	3	-0,945810914	0,007214054
2	0	0	1	0	5249,38	0,700420439	0,700763106	-9,5557444989681242	3	-1,00759447	0,00669631315
2	0	0	0	0	5255,88	0,635411501	0,635773599	-9,5977562020221965	3	-1,06991339	0,0061019999
2	0	0	0	0	5262,39	0,570402622	0,570924222	-9,6133840704957555	3	-1,1324091	0,00548851397
2	0	0	1	0	5268,89	0,505393744	0,505854607	-9,7825437982876902	3	-1,19578767	0,00494854478
2	1	0	0	0	5275,31	0,558801055	0,55938834	-8,9453690275549888	3	-1,25590336	0,00500393519
2	1	0	0	0	5281,81	0,623809993	0,624147534	-8,3438073694705958	3	-1,31195736	0,00520776678
2	1	0	1	0	5288,31	0,688818932	0,689297259	-7,8514593094587187	3	-1,36455917	0,00541198952
2	1	0	1	0	5294,81	0,753827751	0,754377007	-7,4523011321822925	3	-1,4142946	0,00562184444
2	1	0	0	0	5301,31	0,818836689	0,819466591	-7,0083160797754931	3	-1,46126103	0,00574308075
2	1	0	0	0	5307,81	0,883845687	0,884325981	-6,5999504029750963	3	-1,50550973	0,00583650777
2	1	0	1	0	5314,31	0,948854387	0,949425578	-6,2049754820764211	3	-1,54712665	0,00589116244
2	1	0	1	0	5320,81	1,01386333	1,0144552	-5,8083476523558349	3	-1,58614159	0,00589230843
2	1	0	0	0	5327,32	1,0788722	1,07936466	-5,3956527610619853	3	-1,62259316	0,00582387671
2	1	0	0	0	5333,82	1,1438812	1,14440417	-4,9985068701207782	3	-1,65638268	0,00572031224
2	1	0	1	0	5340,32	1,20889008	1,20948386	-4,5644456731776442	3	-1,68751287	0,00552062318
2	1	0	1	0	5346,82	1,27389896	1,27444351	-4,1635307533045702	3	-1,7158848	0,00530618476
2	1	0	1	0	5353,32	1,33890796	1,33935285	-3,7620850553115302	3	-1,74164283	0,00503875921
2	1	0	0	0	5359,82	1,40391672	1,40437233	-3,3878602795302886	3	-1,76488221	0,00475781737
2	1	0	0	0	5366,32	1,46892571	1,46950221	-3,020422893265881	3	-1,78571022	0,00443851808
2	1	0	1	0	5372,82	1,53393471	1,53434145	-2,6744592549900189	3	-1,8041966	0,00410353392
2	1	0	1	0	5379,32	1,59894347	1,59936118	-2,320202646156151	3	-1,82039285	0,00371084199
2	1	0	0	0	5385,82	1,66395247	1,66447067	-1,9948371959229264	3	-1,8344059	0,00332034798
2	1	0	0	0	5392,32	1,72896135	1,72949016	-1,6720152615259139	3	-1,84631753	0,00289173401
2	1	0	1	0	5398,83	1,79397035	1,79425955	-1,3559633949771558	3	-1,85615873	0,00243295031
2	1	0	1	0	5405,33	1,85897923	1,85936928	-1,0403156721343621	3	-1,86395121	0,00193433103
2	1	0	0	0	5411,83	1,9239881	1,92467916	-0,73664247725779866	3	-1,86971843	0,00141780043
2	1	0	0	0	5418,37	1,98939693	1,99004912	-0,43235312324638285	3	-1,87353373	0,000860403932
2	1	0	1	0	5424,87	2,05440593	2,05505896	-0,14581283725177286	3	-1,87540507	0,00029965397
2	1	0	1	0	5431,45	2,12021518	2,12053895	0,13351186570556229	3	-1,87543797	0,000283117115
2	1	0	0	0	5437,95	2,18522453	2,1857295	0,40393266961943654	3	-1,8736856	0,000882887573
2	1	0	0	0	5444,45	2,2502327	2,25062799	0,67063587314138662	3	-1,87018967	0,00150935189
2	1	0	0	0	5450,95	2,31524181	2,31596828	0,93035385943948864	3	-1,86498129	0,00215466996
2	1	0	1	0	5457,48	2,38055062	2,38107777	1,1887095831334555	3	-1,85805964	0,00283040991
2	1	0	1	0	5463,98	2,44555974	2,44605732	1,4423664587860294	3	-1,84951484	0,00352811115
2	1	0	0	0	5470,48	2,51056862	2,51095676	1,7161060000459328	3	-1,83925843	0,00430906797
2	1	0	0	0	5476,99	2,5755775	2,57616663	1,9993922319263149	3	-1,82720256	0,00515076751
2	1	0	1	0	5483,49	2,64058614	2,64103627	2,2980594827483075	3	-1,81322122	0,00606925832
2	1	0	1	0	5489,99	2,70559525	2,70620561	2,6300957916925328	3	-1,79722571	0,00711758016
2	1	0	0	0	5496,49	2,77060413	2,77117515	2,9224581476300954	3	-1,77918947	0,00809864327
2	1	0	0	0	5502,99	2,83561325	2,83612466	3,234160512685776	3	-1,75919366	0,00917248242
2	1	0	1	0	5509,49	2,90062189	2,90107417	3,5045869909226861	3	-1,73731709	0,0101670669
2	1	0	1	0	5515,99	2,96563077	2,96620417	3,8231183439493107	3	-1,71351409	0,0113401497
2	1	0	0	0	5522,49	3,03063989	3,03094316	4,139441561897584	3	-1,68766475	0,0125464117
2	1	0	0	0	5528,99	3,09564877	3,09635329	4,4621553557614464	3	-1,65969479	0,0138164097
2	1	0	0	0	5535,49	3,16065645	3,16119146	4,7949572306029114	3	-1,62958753	0,0151577778
2	1	0	1	0	5541,99	3,22566652	3,22604179	5,1434671034415514	3	-1,59731698	0,016593039
2	1	0	1	0	5548,50	3,2906754	3,29121161	5,5841170276204723	3	-1,56240499	0,0183785111
2	1	0	0	0	5555,00	3,35568404	3,35627103	5,9995933994650701	3	-1,52501726	0,0201362614
2	1	0	0	0	5561,50	3,42069292	3,42128086	6,2367848902940685	3	-1,48501861	0,0213377923
2	1	0	1	0	5568,00	3,4857018	3,48634028	6,7142165650923853	3	-1,44308317	0,0234080441
2	1	0	1	0	5574,50	3,55071115	3,55125999	7,2903940603137011	3	-1,39770091	0,025890084
2	1	0	0	0	5581,00	3,61572003	3,61607909	7,905852988362327	3	-1,3484937	0,0285881888
2	1	0	0	0	5587,50	3,68072867	3,68109846	8,7631113380193715	3	-1,29528856	0,0322578773
2	1	0	1	0	5594,00	3,74573755	3,74624825	9,4695398434996608	3	-1,23645914	0,0354752466
2	1	0	1	0	5600,54	3,8111465	3,81157827	10,150953980783613	3	-1,17273438	0,0386911556
2	1	0	0	0	5607,04	3,87615561	3,87651801	11,073738756279141	3	-1,10431266	0,0429275483
2	1	0	0	0	5613,54	3,94116473	3,94157767	11,609986456731973	3	-1,03069091	0,0457616635
2	1	0	1	0	5620,05	4,00617361	4,00675726	12,183137195408336	3	-0,953396201	0,0488148741
2	1	0	1	0	5626,55	4,07118225	4,07174683	14,043515081206947	3	-0,868991971	0,0571816377
2	1	0	1	0	5633,05	4,13619089	4,13677454	14,227741300321117	3	-0,776780069	0,0588569567
2	0	0	0	1	5639,51	4,19919968	4,19959259	15,348066871364835	3	-0,680639446	0,0644556284
2	0	0	1	1	5646,01	4,13419104	4,13481331	14,403173064192118	3	-0,584276438	0,0595544316
2	0	0	1	1	5652,51	4,06918192	4,06955433	13,502380748589814	3	-0,49303925	0,0549486727
2	0	0	0	1	5659,01	4,00417233	4,00466442	12,030556533284795	3	-0,409970522	0,0481783412
2	0	0	0	1	5665,51	3,9391644	3,9395144	10,436806082725525	3	-0,336807549	0,0411159471
2	0	0	1	1	5672,01	3,87415528	3,87456512	9,1485300287604326	3	-0,273255587	0,0354465768
2	0	0	1	1	5678,51	3,8091464	3,80936551	7,9916959082086784	3	-0,21764195	0,0304432902
2	0	0	1	1	5685,01	3,74413753	3,74438572	6,9415139804283686	3	-0,169247314	0,0259917062
2	0	0	0	1	5691,52	3,67912865	3,67970681	6,1081013704339533	3	-0,12689279	0,0224760231
2	0	0	0	1	5698,02	3,61411977	3,61469722	5,3498963850239891	3	-0,0897032395	0,0193382557
2	0	0	1	1	5704,56	3,54871058	3,54941726	4,6697742305696013	3	-0,0569302402	0,016574977
2	0	0	1	1	5711,06	3,48370171	3,48449779	4,1139930499096666	3	-0,0283946563	0,0143351993
2	0	0	0	1	5717,56	3,41869283	3,41924787	3,5946390964090822	3	-0,00338665675	0,012290962
2	0	0	0	1	5724,06	3,35368395	3,35407853	3,2175370032588544	3	0,01873192	0,0107918717
2	0	0	1	1	5730,56	3,28867507	3,2890687	2,8776156374563834	3	0,0384840183	0,00946467556
2	0	0	1	1	5737,06	3,22366595	3,22404861	2,5660223979502858	3	0,0561545305	0,00827298127
2	0	0	0	1	5743,56	3,15865707	3,15908957	2,300887887055673	3	0,0719522461	0,00726871099
2	0	0	0	1	5750,06	3,09364843	3,09413004	2,0658710760374746	3	0,0861395895	0,00639207382
2	0	0	1	1	5756,56	3,02863955	3,02934122	1,8490057699382234	3	0,0988670662	0,00560126919
2	0	0	1	1	5763,07	2,96363044	2,96402097	1,6590059113999162	3	0,11027734	0,00491732825
2	0	0	0	1	5769,57	2,89862061	2,89922953	1,4987674070751494	3	0,120538361	0,00434527081
2	0	0	0	1	5776,07	2,83361268	2,83393168	1,326225905679161	3	0,129707173	0,00375843351
2	0	0	0	1	5782,57	2,7686038	2,76907253	1,1599047112589091	3	0,137766495	0,00321186031
2	0	0	1	1	5789,07	2,70359492	2,7040627	0,99664692642787853	3	0,144762382	0,00269499584
2	0	0	1	1	5795,57	2,63858604	2,63901305	0,83170801928887667	3	0,15070723	0,00219488842
2	0	0	0	1	5802,07	2,57357693	2,57395339	0,65298011045281971	3	0,155535832	0,00168074039
2	0	0	0	1	5808,61	2,50816822	2,50849342	0,44524026072273702	3	0,159144789	0,00111688231
2	0	0	1	1	5815,11	2,44315934	2,44362426	0,18982558460750899	3	0,161239326	0,000463862409
2	0	0	1	1	5820,27	2,39145255	2,39190316	-0,057678006589412685	3	0,161594748	0,000137960204