File: Experimentelles/Rohdaten/Batterietests/AlteZelle/Studenten_Batterietests/Sonstige/ZView-Export/S vs Li_05_GCPL_C02_loop7.txt
EC-Lab ASCII FILE
Nb header lines : 3
mode	ox/red	error	control changes	Ns changes	counter inc.	Ns	time/s	control/V/mA	Ewe/V	dq/mA.h	<I>/mA	P/W	(Q-Qo)/mA.h	x	Capacity/mA.h
1	0	0	1	1	0	1	469384,62	-0,100000001	2,51067162	0	0	0	0	0	0
1	0	0	1	0	0	1	470484,64	-0,100000001	2,16664505	-0,00027771315013865629	-0,099974809044169242	0,000216609929	-0,03054712570421776	0,001139754331071685	0,03054712570421776
1	0	0	1	0	0	1	471584,67	-0,100000001	2,1463511	-0,00027771367085890637	-0,09997499649984983	0,000214581451	-0,061095580424008717	0,0022795582495012864	0,061095580424008717
1	0	0	1	0	0	1	472684,69	-0,100000001	2,12559915	-0,00027771253240356838	-0,099974586660327987	0,000212505896	-0,091644025738927219	0,0034193618170224512	0,091644025738927219
1	0	0	1	0	0	1	473784,71	-0,100000001	2,11316347	-0,00027771362004304925	-0,099974978206493491	0,000211263468	-0,12219247874125085	0,0045591656713710374	0,12219247874125085
1	0	0	1	0	0	1	474884,73	-0,100000001	2,09187746	-0,00027771382119216854	-0,099975050618782144	0,000209135556	-0,15274097037426848	0,0056989709670827571	0,15274097037426848
1	0	0	1	0	0	1	475984,75	-0,100000001	2,07019114	-0,00027771385730513267	-0,099975063613379712	0,000206967496	-0,18328945634517702	0,0068387760515335718	0,18328945634517702
1	0	0	1	0	0	1	477084,77	-0,100000001	2,03437138	-0,00027771261227089501	-0,099974615415503488	0,000203385498	-0,21383787595007581	0,0079785786597793357	0,21383787595007581
1	0	0	1	0	0	1	478184,79	-0,100000001	1,99107468	-0,00027771290762515533	-0,099974721740989914	0,000199057133	-0,24438635135627261	0,009118383350046551	0,24438635135627261
1	0	0	1	0	0	1	479284,81	-0,100000001	1,96416211	-0,0002777135726739135	-0,099974961151023373	0,000196367037	-0,2749348379492777	0,010258188457708626	0,2749348379492777
1	0	0	1	0	0	1	480384,83	-0,100000001	1,95439649	-0,00027771378001819056	-0,099975035796435494	0,000195390865	-0,30548326534028128	0,011397991356464427	0,30548326534028128
1	0	0	1	0	0	1	481484,86	-0,100000001	1,95437741	-0,00027771312348337638	-0,099974799448453235	0,000195388493	-0,33603173843689786	0,012537795960558101	0,33603173843689786
1	0	0	1	0	0	1	482584,88	-0,100000001	1,95374811	-0,00027771439746270573	-0,09997525806985335	0,000195326473	-0,36658019641066458	0,013677600000397914	0,36658019641066458
1	0	0	1	0	0	1	483684,90	-0,100000001	1,95088708	-0,00027771346538803645	-0,099974922531760909	0,000195039785	-0,39712880468929427	0,01481740964831425	0,39712880468929427
1	0	0	1	0	0	1	484784,92	-0,100000001	1,94833124	-0,00027771326767280701	-0,099974851355648781	0,000194784123	-0,42767733661159808	0,015957216447273405	0,42767733661159808
1	0	0	1	0	0	1	485884,94	-0,100000001	1,94300973	-0,00027771352641408643	-0,099974944498388198	0,000194252294	-0,45822588206911546	0,017097023751249574	0,45822588206911546
1	0	0	1	0	0	1	486984,96	-0,100000001	1,94033945	-0,00027771406218450931	-0,099975137369698982	0,000193985703	-0,48877434139977069	0,018236827841716723	0,48877434139977069
1	0	0	1	0	0	1	488084,98	-0,100000001	1,9380697	-0,00027771337209766109	-0,099974888947872422	0,0001937583	-0,5193228499492025	0,019376633768602602	0,5193228499492025
1	0	0	1	0	0	1	489185,00	-0,100000001	1,93402612	-0,00027771280388409894	-0,099974684390273344	0,000193353655	-0,5498713147531801	0,020516438063286762	0,5498713147531801
1	0	0	1	0	0	1	490285,03	-0,100000001	1,9276557	-0,00027771173569435878	-0,0999742998493712	0,000192716034	-0,58041977728190502	0,021656242273078189	0,58041977728190502
1	0	0	1	0	0	1	491385,05	-0,100000001	1,91912985	-0,00027771236821677949	-0,099974527557713574	0,000191864106	-0,61096817202842534	0,022796043953824429	0,61096817202842534
1	0	0	1	0	0	1	492485,07	-0,100000001	1,9077431	-0,00027771254832090605	-0,099974592389295386	0,000190725841	-0,64151657181572147	0,023935845822648794	0,64151657181572147
1	0	0	1	0	0	1	493585,09	-0,100000001	1,89223647	-0,00027771304125297405	-0,099974769841423027	0,000189175902	-0,67206495264114509	0,025075646983980192	0,67206495264114509
1	0	0	1	0	0	1	494685,11	-0,100000001	1,86898601	-0,00027771364794340397	-0,099974988250427802	0,000186851859	-0,70261337661594752	0,026215449755272941	0,70261337661594752
1	0	0	1	0	0	1	495785,13	-0,100000001	1,81832707	-0,00027771297822230394	-0,099974747150818714	0,000181786789	-0,73316184333163674	0,027355254121285629	0,73316184333163674
1	0	0	1	0	0	1	496885,15	-0,100000001	1,41158736	-0,00027771280081032051	-0,099974683286062106	0,000141123004	-0,7637102753534633	0,028495057192823661	0,7637102753534633
1	0	0	1	0	0	1	497985,17	-0,100000001	1,00866234	-0,00027771308626482883	-0,099974786050034112	0,0001008408	-0,79425873261382451	0,029634861206045357	0,79425873261382451
1	1	0	0	0	0	2	499072,30	0,100000001	2,45701814	0,00027781073277692	0,1000099381175371	0,000245726231	-0,76500796712429376	0,02854347581755849	0,029725768448077146
1	1	0	0	0	0	2	500172,32	0,100000001	2,43475962	0,00027781172730815075	0,10001029613722946	0,000243501025	-0,73444874701890662	0,02740327022811808	0,060284988553464026
1	1	0	0	0	0	2	501272,34	0,100000001	2,43702936	0,00027780990755682192	0,10000964104169341	0,000243726434	-0,70388955906220941	0,026263065838188518	0,090844176510161024
1	1	0	0	0	0	2	502372,36	0,100000001	2,44086313	0,00027781060196749037	0,10000989102704914	0,000244110459	-0,67333035970846157	0,02512286102301967	0,12140337586390894
1	1	0	0	0	0	2	503472,38	0,100000001	2,44381952	0,00027781079196184877	0,1000099594237012	0,000244406285	-0,64277115854694822	0,023982656140400662	0,1519625770254224
1	1	0	0	0	0	2	504572,41	0,100000001	2,4492743	0,00027781047953416902	0,10000984694840941	0,000244951545	-0,61221197514801626	0,022842451920527446	0,18252176042435421
1	1	0	0	0	0	2	505672,43	0,100000001	2,45383286	0,00027781007648921674	0,10000970185851307	0,000245407107	-0,58165283307448	0,021702249242560307	0,21308090249789078
1	1	0	0	0	0	2	506772,45	0,100000001	2,45856309	0,00027781021864008573	0,10000975303184056	0,000245880277	-0,55109371028362861	0,020562047284056067	0,2436400252887423
1	1	0	0	0	0	2	507872,47	0,100000001	2,46357942	0,00027781120425669683	0,10001010784815288	0,000246382842	-0,52053450381506304	0,019421842203423808	0,27419923175730854
1	1	0	0	0	0	2	508972,49	0,100000001	2,46581101	0,0002778123728161057	0,10001052852027581	0,000246607058	-0,48997527020657581	0,018281636110164576	0,30475846536579565
1	1	0	0	0	0	2	510072,51	0,100000001	2,47199082	0,00027781098804415926	0,10001003001197381	0,000247223885	-0,45941601193796038	0,01714142909680281	0,33531772363441107
1	1	0	0	0	0	2	511172,53	0,100000001	2,4753859	0,00027781142868060202	0,10001018863512826	0,000247563818	-0,42885677163310323	0,016001222753693014	0,36587696393926829
1	1	0	0	0	0	2	512272,55	0,100000001	2,48276734	0,0002778109774659905	0,10001002620390638	0,000248301629	-0,39829754236869152	0,014861016822517082	0,39643619320367994
1	1	0	0	0	0	2	513372,57	0,100000001	2,48353028	0,00027781210746160813	0,10001043299449602	0,000248378929	-0,36773825066247418	0,01372080856155343	0,42699548490989728
1	1	0	0	0	0	2	514472,60	0,100000001	2,47736955	0,00027781066325638029	0,10000991308713195	0,00024776152	-0,33717896865973882	0,012580600662639734	0,4575547669126327
1	1	0	0	0	0	2	515572,62	0,100000001	2,47506166	0,00027781054628847373	0,1000098709829891	0,00024753061	-0,30661981850180467	0,011440397683032843	0,48811391707056678
1	1	0	0	0	0	2	516672,64	0,100000001	2,4744513	0,00027781021662553149	0,10000975230661501	0,000247469259	-0,2760607345928639	0,010300197175264965	0,5186730009795072
1	1	0	0	0	0	2	517772,66	0,100000001	2,48076463	0,00027781152830769619	0,1000102245007737	0,000248101831	-0,24550152154795184	0,0091599918492603725	0,54923221402441926
1	1	0	0	0	0	2	518872,68	0,100000001	2,48869896	0,00027781208295954598	0,10001042416926646	0,000248895842	-0,21494220409954563	0,0080197826278210419	0,57979153147282547
1	1	0	0	0	0	2	519972,70	0,100000001	2,49670982	0,00027781245225212643	0,10001055711669264	0,000249697332	-0,18438287867765603	0,0068795731088803264	0,61035085689471539
1	1	0	0	0	0	2	521072,72	0,100000001	2,51011848	0,00027781229813728064	0,10001050163175942	0,000251038204	-0,1538234989827841	0,0057393615649416685	0,64091023658958746
1	1	0	0	0	0	2	522172,74	0,100000001	2,50937462	0,00027781324833383158	0,10001084369593133	0,000250964658	-0,12326410284860501	0,0045991494076303578	0,67146963272376653
1	1	0	0	0	0	2	523272,77	0,100000001	2,48389268	0,00027781309971503085	0,10001079019885024	0,000248416065	-0,092704648358061786	0,00345893507296464	0,70202908721431066
1	1	0	0	0	0	2	524372,79	0,100000001	2,49434471	0,00027781252803198163	0,10001063208478262	0,00024946098	-0,062145249337240896	0,0023187228079488429	0,73258848623513126
1	1	0	0	0	0	2	525472,81	0,100000001	2,49745369	0,00027781343119301728	0,10001095721199306	0,00024977274	-0,031585782529494675	0,0011785080137117206	0,7631479530428777
1	1	0	0	0	0	2	526572,83	0,100000001	2,5080204	0,00027781310864786307	0,10001084110257496	0,000250829238	-0,0010262825644321034	3,8291982330545062E-005	0,79370745300794022
1	1	0	0	0	0	2	527672,85	0,100000001	2,5155735	0,00027781344889683856	0,10001096358990606	0,000251584919	0,029533212225195981	-0,0011019238559482114	0,82426694779756851
1	1	0	0	0	0	2	528772,87	0,100000001	2,52318382	0,00027781383734072243	0,10001110342242136	0,000252346392	0,060092725044404186	-0,0022421403669348429	0,8548264606167767
1	1	0	0	0	0	2	529872,89	0,100000001	2,53584838	0,00027781397340819238	0,10001115241044778	0,000253613107	0,09065229446154761	-0,003382358989666535	0,8853860300339209
1	1	0	0	0	0	2	530972,91	0,100000001	2,54803634	0,00027781448359042403	0,10001133607260234	0,000254832528	0,1212118491623721	-0,0045225770633125798	0,91594558473474637
1	1	0	0	0	0	2	532072,93	0,100000001	2,56627059	0,00027781333238631485	0,1000109216422481	0,000256655097	0,15177137856079142	-0,0056627941928918694	0,94650511413316582
1	1	0	0	0	0	2	533172,95	0,100000001	2,59873343	0,00027781383729477725	0,10001110341053843	0,000259902212	0,18233083088178771	-0,0068030084466088755	0,97706456645416256
1	1	0	0	0	0	2	534002,25	0,100000001	2,71592021	0,00025781191023811696	0,1000112078723067	0,00027162247	0,20536932207043021	-0,0076626055284379699	1,0001030576428054