File: Experimentelles/Rohdaten/Batterietests/AlteZelle/Studenten_Batterietests/Sonstige/ZView-Export/S vs Li_04_OCV_C02_loop0.txt
EC-Lab ASCII FILE
Nb header lines : 3
mode	error	time/s	Ewe/V
3	0	11741,20	2,3973949
3	0	11756,20	2,38082004
3	0	11771,20	2,37298083
3	0	11786,20	2,36762118
3	0	11801,20	2,36363506
3	0	11816,20	2,36069775
3	0	11831,20	2,35856152
3	0	11846,20	2,35653973
3	0	11861,20	2,35518551
3	0	11876,20	2,35385036
3	0	11891,20	2,35280132
3	0	11906,20	2,35198116
3	0	11921,20	2,35127544
3	0	11936,20	2,35049343
3	0	11951,20	2,35009289
3	0	11966,20	2,34948254
3	0	11981,20	2,34892941
3	0	11996,20	2,34845257
3	0	12011,20	2,34793758
3	0	12026,20	2,34761333
3	0	12041,20	2,34692669
3	0	12056,20	2,34665966
3	0	12071,20	2,34627819
3	0	12086,20	2,3458395
3	0	12101,20	2,34557247
3	0	12116,20	2,34513378
3	0	12131,20	2,34480953
3	0	12146,20	2,34442806
3	0	12161,20	2,34412289
3	0	12176,20	2,34387493
3	0	12191,20	2,34345531
3	0	12206,20	2,34313107
3	0	12221,20	2,34284496
3	0	12236,20	2,34265423
3	0	12251,20	2,34219646
3	0	12266,20	2,34175777
3	0	12281,20	2,34158611
3	0	12296,20	2,34139538
3	0	12311,20	2,34112835
3	0	12326,20	2,3408041
3	0	12341,20	2,34057522
3	0	12356,20	2,34028912
3	0	12371,20	2,34004116
3	0	12386,20	2,33971691
3	0	12401,20	2,33954525
3	0	12416,20	2,33920193
3	0	12431,20	2,33895397
3	0	12446,20	2,3386488
3	0	12461,20	2,33853436
3	0	12476,20	2,33824825
3	0	12491,20	2,33817196
3	0	12506,20	2,33782864
3	0	12521,20	2,33759975
3	0	12536,20	2,33733273
3	0	12551,20	2,33719921
3	0	12566,20	2,33687496
3	0	12581,20	2,33672237
3	0	12596,20	2,33662701
3	0	12611,20	2,33626461
3	0	12626,20	2,3360548
3	0	12641,20	2,33592129
3	0	12656,20	2,33553982
3	0	12671,20	2,33534908
3	0	12686,20	2,33521557
3	0	12701,20	2,33502483
3	0	12716,20	2,33477688
3	0	12731,20	2,33464336
3	0	12746,20	2,33431911
3	0	12761,20	2,33424282
3	0	12776,20	2,33409023
3	0	12791,20	2,33386135
3	0	12806,20	2,33365154
3	0	12821,20	2,33351803
3	0	12836,20	2,33315563
3	0	12851,20	2,33302212
3	0	12866,20	2,33292675
3	0	12881,20	2,33267879
3	0	12896,20	2,33258343
3	0	12911,20	2,33243084
3	0	12926,20	2,33214474
3	0	12941,20	2,33201122
3	0	12956,20	2,33178234
3	0	12971,20	2,33178234
3	0	12986,20	2,33147717
3	0	13001,20	2,33128643
3	0	13016,20	2,33117199
3	0	13031,20	2,33111477
3	0	13046,20	2,3307333
3	0	13061,20	2,33071423
3	0	13076,20	2,33048534
3	0	13091,20	2,33027554
3	0	13106,20	2,33018017
3	0	13121,20	2,32989407
3	0	13136,20	2,32981777
3	0	13151,20	2,32958889
3	0	13166,20	2,32953167
3	0	13181,20	2,32928371
3	0	13196,20	2,3291502
3	0	13211,20	2,32905483
3	0	13226,20	2,3287878
3	0	13241,20	2,3287878
3	0	13256,20	2,32853985
3	0	13271,20	2,32838726
3	0	13286,20	2,32812023
3	0	13301,20	2,32804394
3	0	13316,20	2,32794857
3	0	13331,20	2,32777691
3	0	13346,20	2,32758617
3	0	13361,20	2,32749081
3	0	13376,20	2,32726192
3	0	13391,20	2,32718563
3	0	13406,20	2,32695675
3	0	13421,20	2,32684231
3	0	13436,20	2,32667065
3	0	13451,20	2,32655621
3	0	13466,20	2,32630825
3	0	13481,20	2,3262701
3	0	13496,20	2,32611752
3	0	13511,20	2,32588863
3	0	13526,20	2,32575512
3	0	13541,20	2,3256216
3	0	13556,20	2,32539272
3	0	13571,20	2,32539272
3	0	13586,20	2,32516384
3	0	13601,20	2,32501125
3	0	13616,20	2,32482052
3	0	13631,20	2,32466793
3	0	13646,20	2,32455349
3	0	13661,20	2,32449627
3	0	13676,20	2,32428646
3	0	13691,20	2,32405758
3	0	13706,20	2,32388592
3	0	13721,20	2,32379055
3	0	13736,20	2,32369518
3	0	13751,20	2,3234663
3	0	13766,20	2,32333279
3	0	13781,20	2,32312298
3	0	13796,20	2,32295132
3	0	13811,20	2,32279897
3	0	13826,20	2,32268453
3	0	13841,20	2,32251287
3	0	13856,20	2,32236028
3	0	13871,20	2,32226491
3	0	13886,20	2,32199788
3	0	13901,20	2,32178807
3	0	13916,20	2,32174993
3	0	13931,20	2,32152104
3	0	13946,20	2,32125401
3	0	13961,20	2,32113957
3	0	13976,20	2,32092977
3	0	13991,20	2,3208344
3	0	14006,20	2,32056737
3	0	14021,20	2,32045293
3	0	14036,20	2,32024312
3	0	14051,20	2,31991887
3	0	14066,20	2,31978536
3	0	14081,20	2,31968999
3	0	14096,20	2,31934667
3	0	14111,20	2,31915593
3	0	14126,20	2,31892705
3	0	14141,20	2,31875539
3	0	14156,20	2,31854558
3	0	14171,20	2,31829762
3	0	14186,20	2,31806874
3	0	14201,20	2,31772542
3	0	14216,20	2,31757283
3	0	14231,20	2,31726766
3	0	14246,20	2,31713414
3	0	14261,20	2,31680989
3	0	14276,20	2,31650472
3	0	14291,20	2,31631398
3	0	14306,20	2,31600881
3	0	14321,20	2,31576085
3	0	14336,20	2,31547475
3	0	14351,20	2,3151505
3	0	14366,20	2,31488347
3	0	14381,20	2,31469274
3	0	14396,20	2,31436849
3	0	14411,20	2,31406331
3	0	14426,20	2,31381536
3	0	14441,20	2,31349111
3	0	14456,20	2,31314778
3	0	14471,20	2,31280446
3	0	14486,20	2,31249928
3	0	14501,20	2,31211782
3	0	14516,20	2,31194615
3	0	14531,20	2,31158376
3	0	14546,20	2,31131673
3	0	14561,20	2,3110497
3	0	14576,20	2,31063008
3	0	14591,20	2,31042027
3	0	14606,20	2,31001973
3	0	14621,20	2,30969548
3	0	14636,20	2,30935216
3	0	14651,20	2,30908513
3	0	14666,20	2,30879903
3	0	14681,20	2,30845571
3	0	14696,20	2,30809331
3	0	14711,20	2,30761647
3	0	14726,20	2,3073113
3	0	14741,20	2,30704427
3	0	14756,20	2,3065865
3	0	14771,20	2,30626225
3	0	14786,20	2,30588078
3	0	14801,20	2,30570912
3	0	14816,20	2,30523229
3	0	14831,20	2,30483174
3	0	14846,20	2,30460286
3	0	14861,20	2,30399251
3	0	14876,20	2,30364919
3	0	14891,20	2,30338216
3	0	14906,20	2,30292439
3	0	14921,20	2,30252385
3	0	14936,20	2,30214238
3	0	14951,20	2,30176091
3	0	14966,20	2,30137944
3	0	14981,20	2,30101705
3	0	14996,20	2,30071187
3	0	15011,20	2,30029225
3	0	15026,20	2,29991078
3	0	15041,20	2,29956746
3	0	15056,20	2,29916692
3	0	15071,20	2,29876637
3	0	15086,20	2,2983849
3	0	15101,20	2,29779363
3	0	15116,20	2,29748845
3	0	15131,20	2,29708791
3	0	15146,20	2,29670644
3	0	15161,20	2,29624867
3	0	15176,20	2,2958672
3	0	15191,20	2,29540944
3	0	15206,20	2,29508519
3	0	15221,20	2,29460835
3	0	15236,20	2,29415059
3	0	15251,20	2,2937119
3	0	15266,20	2,29329228
3	0	15281,20	2,29272008
3	0	15296,20	2,29239583
3	0	15311,20	2,29199529
3	0	15326,20	2,29161382
3	0	15341,20	2,29113698