File: Experimentelles/Rohdaten/Batterietests/AlteZelle/Studenten_Batterietests/Sonstige/ZView-Export/S vs Li_07_OCV_C02_loop0.txt
EC-Lab ASCII FILE
Nb header lines : 3
mode	error	time/s	Ewe/V
3	0	727441,76	2,94058537
3	0	727501,76	2,61254239
3	0	727561,76	2,5573442
3	0	727621,76	2,5292871
3	0	727681,76	2,51120567
3	0	727741,76	2,49625206
3	0	727801,76	2,48040223
3	0	727861,76	2,465029
3	0	727921,76	2,45158219
3	0	727981,76	2,44031
3	0	728041,76	2,43071604
3	0	728101,76	2,42207575
3	0	728161,76	2,41433191
3	0	728221,76	2,40687418
3	0	728281,76	2,39995074
3	0	728341,76	2,39352298
3	0	728401,76	2,38762927
3	0	728461,76	2,38240314
3	0	728521,76	2,3777492
3	0	728581,76	2,37357211
3	0	728641,76	2,36996722
3	0	728701,76	2,36672473
3	0	728761,76	2,36397815
3	0	728821,76	2,36136532
3	0	728881,76	2,35905743
3	0	728941,76	2,35707378
3	0	729001,76	2,35528088
3	0	729061,76	2,35362148
3	0	729121,76	2,35201931
3	0	729181,76	2,35056973
3	0	729241,76	2,34919643
3	0	729301,76	2,34803295
3	0	729361,76	2,34690762
3	0	729421,76	2,34578228
3	0	729481,76	2,34475231
3	0	729541,76	2,34383678
3	0	729601,76	2,34282589
3	0	729661,76	2,34194851
3	0	729721,76	2,34133816
3	0	729781,76	2,34053707
3	0	729841,76	2,33981228
3	0	729901,76	2,33899212
3	0	729961,76	2,33832455
3	0	730021,76	2,33767605
3	0	730081,76	2,33712292
3	0	730141,76	2,33649349
3	0	730201,76	2,33588314
3	0	730261,76	2,3354063
3	0	730321,76	2,33477688
3	0	730381,76	2,33430004
3	0	730441,76	2,33374691
3	0	730501,76	2,33328915
3	0	730561,76	2,33281231
3	0	730621,76	2,33229733
3	0	730681,76	2,33193493
3	0	730741,76	2,33140087
3	0	730801,76	2,33092403
3	0	730861,76	2,33069515
3	0	730921,76	2,33027554
3	0	730981,76	2,32974148
3	0	731041,76	2,32939816
3	0	731101,76	2,32903576
3	0	731161,76	2,32861614
3	0	731221,76	2,32827282
3	0	731281,76	2,32791042
3	0	731341,76	2,32758617
3	0	731401,76	2,32718563
3	0	731461,76	2,32701397
3	0	731521,76	2,32659435
3	0	731581,76	2,32632732
3	0	731641,76	2,32592678
3	0	731701,77	2,32560253
3	0	731761,77	2,32539272
3	0	731821,77	2,32493496
3	0	731881,77	2,32466793
3	0	731941,77	2,32445812
3	0	732001,77	2,32415295
3	0	732061,77	2,32392406
3	0	732121,77	2,32359982
3	0	732181,77	2,32339001
3	0	732241,77	2,32306576
3	0	732301,77	2,32285595
3	0	732361,77	2,32258916
3	0	732421,77	2,32237935
3	0	732481,77	2,32199788
3	0	732541,77	2,321769
3	0	732601,77	2,32155919
3	0	732661,77	2,32131124
3	0	732721,77	2,32106328
3	0	732781,77	2,32077718
3	0	732841,77	2,32058644
3	0	732901,77	2,32035756
3	0	732961,77	2,32014775
3	0	733021,77	2,31984258
3	0	733081,77	2,31963277
3	0	733141,77	2,31951833
3	0	733201,77	2,31940389
3	0	733261,77	2,31898427
3	0	733321,77	2,31881261
3	0	733381,77	2,31869817
3	0	733441,77	2,31850743
3	0	733501,77	2,3182404
3	0	733561,77	2,31804967
3	0	733621,77	2,31780171
3	0	733681,77	2,31772542
3	0	733741,77	2,3173821
3	0	733801,77	2,31732488
3	0	733861,77	2,31711507
3	0	733921,77	2,31694341
3	0	733981,77	2,31669545
3	0	734041,77	2,31650472
3	0	734101,77	2,31625676
3	0	734161,77	2,3160851
3	0	734221,77	2,31595159
3	0	734281,77	2,31593251
3	0	734341,77	2,31564641
3	0	734401,77	2,31549382
3	0	734461,77	2,31534123
3	0	734521,77	2,31507421
3	0	734581,77	2,31494069
3	0	734641,77	2,31474996
3	0	734701,77	2,31455922
3	0	734761,77	2,31457829
3	0	734821,77	2,31442571
3	0	734881,77	2,31419683
3	0	734941,77	2,31408238
3	0	735001,77	2,3138535
3	0	735061,77	2,31368184
3	0	735121,77	2,31360555
3	0	735181,77	2,31331944
3	0	735241,77	2,31330037
3	0	735301,77	2,31303334
3	0	735361,77	2,31284261
3	0	735421,77	2,31284261
3	0	735481,77	2,31269002
3	0	735541,77	2,31255651
3	0	735601,77	2,3123467
3	0	735661,77	2,31230855
3	0	735721,77	2,31204152
3	0	735781,77	2,31204152
3	0	735841,77	2,31186986
3	0	735901,77	2,31171727
3	0	735961,77	2,31160283
3	0	736021,77	2,3114121
3	0	736081,77	2,3113358
3	0	736141,77	2,31110692
3	0	736201,77	2,31103063
3	0	736261,77	2,31083989
3	0	736321,77	2,31087804
3	0	736381,77	2,31070638
3	0	736441,78	2,31051564
3	0	736501,78	2,31051564
3	0	736561,78	2,31036305
3	0	736621,78	2,31009603
3	0	736681,78	2,31003881
3	0	736741,78	2,30990529
3	0	736801,78	2,30988622
3	0	736861,78	2,30977178
3	0	736921,78	2,30963826
3	0	736981,78	2,30960011
3	0	737041,78	2,30927587
3	0	737101,78	2,30925679
3	0	737161,78	2,30927587
3	0	737221,78	2,30902791
3	0	737281,78	2,30883718
3	0	737341,78	2,30879903
3	0	737401,78	2,30870366
3	0	737461,78	2,30870366
3	0	737521,78	2,30849385
3	0	737581,78	2,30836034
3	0	737641,78	2,3081696
3	0	737701,78	2,3081696
3	0	737761,78	2,30809331
3	0	737821,78	2,30792165
3	0	737881,78	2,30776906
3	0	737941,78	2,30778813
3	0	738001,78	2,30757833
3	0	738061,78	2,3075211
3	0	738121,78	2,30742574
3	0	738181,78	2,30740666
3	0	738241,74	2,307235