File: Experimentelles/Rohdaten/Batterietests/AlteZelle/Studenten_Batterietests/Sonstige/ZView-Export/S vs Li_01_OCV_C02_loop0.txt
EC-Lab ASCII FILE
Nb header lines : 3
mode	error	time/s	Ewe/V
3	1	0,00	2,53045058
3	0	15,00	2,52102852
3	0	30,00	2,5117588
3	0	45,00	2,50296593
3	0	60,00	2,49434471
3	0	75,00	2,48620057
3	0	90,00	2,47853303
3	0	105,00	2,47101808
3	0	120,00	2,46382737
3	0	135,00	2,45659852
3	0	150,00	2,44978929
3	0	165,00	2,4440484
3	0	180,00	2,43941355
3	0	195,00	2,4359231
3	0	210,00	2,433043
3	0	225,00	2,43031549
3	0	240,00	2,42850351
3	0	255,00	2,42676783
3	0	270,00	2,42526102
3	0	285,00	2,42392588
3	0	300,00	2,42266703
3	0	315,00	2,42161798
3	0	330,00	2,42056894
3	0	345,00	2,41971064
3	0	360,00	2,41890955
3	0	375,00	2,4182229
3	0	390,00	2,41751719
3	0	405,00	2,41684961
3	0	420,00	2,41633463
3	0	435,00	2,4157052
3	0	450,00	2,41524744
3	0	465,00	2,41467524
3	0	480,00	2,41421747
3	0	495,00	2,41389322
3	0	510,00	2,41347361
3	0	525,00	2,41305399
3	0	540,00	2,41257715
3	0	555,00	2,4123292
3	0	570,00	2,41200495
3	0	585,00	2,41173792
3	0	600,00	2,41143274
3	0	615,00	2,41101313
3	0	630,00	2,4106698
3	0	645,00	2,41047907
3	0	660,00	2,41036463
3	0	675,00	2,40992594
3	0	690,00	2,4097352
3	0	705,00	2,40946817
3	0	720,00	2,40922022
3	0	735,00	2,4090867
3	0	750,00	2,4088769
3	0	765,00	2,40870523
3	0	780,00	2,40849543
3	0	795,00	2,4082284
3	0	810,00	2,40798044
3	0	825,00	2,407866
3	0	840,00	2,40759897
3	0	855,00	2,4075036
3	0	870,00	2,40738916
3	0	885,00	2,40717936
3	0	900,00	2,4069314
3	0	915,00	2,40687418
3	0	930,00	2,40668344
3	0	945,00	2,40658808
3	0	960,00	2,40632105
3	0	975,00	2,40613031
3	0	990,00	2,40607309
3	0	1005,00	2,40603495
3	0	1020,00	2,40569162
3	0	1035,00	2,4057107
3	0	1050,00	2,40550089
3	0	1065,00	2,40540552
3	0	1080,00	2,40525293
3	0	1095,00	2,40508127
3	0	1110,00	2,40504313
3	0	1125,00	2,40490961
3	0	1140,00	2,40479541
3	0	1155,00	2,40466189
3	0	1170,00	2,40450931
3	0	1185,00	2,40431857
3	0	1200,00	2,40424228
3	0	1215,00	2,40408969
3	0	1230,00	2,40387988
3	0	1245,00	2,40399432
3	0	1260,00	2,40378451
3	0	1275,00	2,40361285
3	0	1290,00	2,40346026
3	0	1305,00	2,40338397
3	0	1320,00	2,40338397
3	0	1335,00	2,40325046
3	0	1350,00	2,4030025
3	0	1365,00	2,40292621
3	0	1380,00	2,40288806
3	0	1395,00	2,40277362
3	0	1410,00	2,40273547
3	0	1425,00	2,40250659
3	0	1440,00	2,40256381
3	0	1455,00	2,40223956
3	0	1470,00	2,40218234
3	0	1485,00	2,40201068
3	0	1500,00	2,40197253
3	0	1515,00	2,4017818
3	0	1530,00	2,40172458
3	0	1545,00	2,40168643
3	0	1560,00	2,40161014
3	0	1575,00	2,40147662
3	0	1590,00	2,40147662
3	0	1605,00	2,40120959
3	0	1620,00	2,40103793
3	0	1635,00	2,40103793
3	0	1650,00	2,401057
3	0	1665,00	2,40092349
3	0	1680,00	2,40073276
3	0	1695,00	2,40069461
3	0	1710,00	2,40067554
3	0	1725,00	2,40052295
3	0	1740,00	2,40033221
3	0	1755,00	2,40029407
3	0	1770,00	2,40014148
3	0	1785,00	2,40002704
3	0	1800,00	2,40010333
3	0	1815,00	2,3998363
3	0	1830,00	2,39985538
3	0	1845,00	2,39968371
3	0	1860,00	2,39966464
3	0	1875,00	2,39956927
3	0	1890,00	2,39943576
3	0	1905,00	2,39934039
3	0	1920,00	2,39928317
3	0	1935,00	2,3991878
3	0	1950,00	2,39924502
3	0	1965,00	2,39895892
3	0	1980,00	2,39895892
3	0	1995,00	2,39878726
3	0	2010,00	2,39855838
3	0	2025,00	2,3986156
3	0	2040,00	2,39855838
3	0	2055,00	2,39836764
3	0	2070,00	2,39836764
3	0	2085,00	2,3982532
3	0	2100,00	2,39821506
3	0	2115,00	2,39819598
3	0	2130,00	2,39804339
3	0	2145,00	2,39785266
3	0	2160,00	2,39785266
3	0	2175,00	2,39775729
3	0	2190,00	2,39770007
3	0	2205,00	2,39752841
3	0	2220,00	2,39750934
3	0	2235,00	2,39747119
3	0	2250,00	2,39737582
3	0	2265,00	2,39724231
3	0	2280,00	2,39712787
3	0	2295,00	2,3970325
3	0	2310,00	2,39701343
3	0	2325,00	2,39691806
3	0	2340,00	2,39672732
3	0	2355,00	2,39661288
3	0	2370,00	2,39663196
3	0	2385,00	2,39653659
3	0	2400,00	2,39655566
3	0	2415,00	2,39634585
3	0	2430,00	2,39621234
3	0	2445,00	2,3960979
3	0	2460,00	2,39619327
3	0	2475,00	2,3960216
3	0	2490,00	2,39596438
3	0	2505,00	2,39588809
3	0	2520,00	2,39575458
3	0	2535,00	2,39569736
3	0	2550,00	2,39558291
3	0	2565,00	2,39552569
3	0	2580,00	2,39556384
3	0	2595,00	2,39539218
3	0	2610,00	2,39529681
3	0	2625,00	2,39514422
3	0	2640,00	2,3951633
3	0	2655,00	2,39510608
3	0	2670,00	2,39493442
3	0	2685,00	2,39485812
3	0	2700,00	2,39485812
3	0	2715,00	2,39468646
3	0	2730,00	2,39466739
3	0	2745,00	2,39455295
3	0	2760,00	2,39449573
3	0	2775,00	2,39430499
3	0	2790,00	2,39432406
3	0	2805,00	2,3942287
3	0	2820,00	2,39411426
3	0	2835,00	2,39411426
3	0	2850,00	2,39407611
3	0	2865,00	2,39398074
3	0	2880,00	2,39382815
3	0	2895,00	2,39377093
3	0	2910,00	2,39371371
3	0	2925,00	2,39365649
3	0	2940,00	2,39348483
3	0	2955,00	2,39338946
3	0	2970,00	2,39333224
3	0	2985,00	2,39327502
3	0	3000,00	2,39319873
3	0	3015,00	2,39310336
3	0	3030,00	2,39298892
3	0	3045,00	2,39300799
3	0	3060,00	2,39295077
3	0	3075,00	2,39283633
3	0	3090,00	2,39276004
3	0	3105,00	2,39266467
3	0	3120,00	2,39249301
3	0	3135,00	2,39253116
3	0	3150,00	2,39243579
3	0	3165,00	2,3922832
3	0	3180,00	2,39220691
3	0	3195,00	2,39222598
3	0	3210,00	2,39216876
3	0	3225,00	2,39193988
3	0	3240,00	2,39197803
3	0	3255,00	2,39184451
3	0	3270,00	2,39180636
3	0	3285,00	2,39178729
3	0	3300,00	2,39153934
3	0	3315,00	2,39150119
3	0	3330,00	2,39150119
3	0	3345,00	2,39142489
3	0	3360,00	2,39131045
3	0	3375,00	2,39125323
3	0	3390,00	2,39117694
3	0	3405,00	2,3910625
3	0	3420,00	2,39117694
3	0	3435,00	2,39102435
3	0	3450,00	2,39085269
3	0	3465,00	2,39089084
3	0	3480,00	2,39075732
3	0	3495,00	2,39068103
3	0	3510,00	2,39054751
3	0	3525,00	2,39058566
3	0	3540,00	2,39037585
3	0	3555,00	2,39045215
3	0	3570,00	2,39033771
3	0	3585,00	2,39028049
3	0	3600,00	2,39018512