File: Experimentelles/Rohdaten/Batterietests/AlteZelle/Studenten_Batterietests/Sonstige/ZView-Export/S vs Li_02_CV_C02_loop9.txt
EC-Lab ASCII FILE
Nb header lines : 3
mode	ox/red	error	control changes	counter inc.	time/s	control/V	Ewe/V	<I>/mA	cycle number	(Q-Qo)/C	P/W
2	0	0	1	0	10261,08	2,39505315	2,39566827	-0,010790958069264888	10	0	2,58515556E-005
2	0	0	0	0	10267,75	2,32834339	2,32891583	-0,31780112255364614	10	-0,00106799603	0,000740132062
2	0	0	0	0	10274,40	2,26183414	2,26234412	-0,68669025234981798	10	-0,00437621213	0,00155352964
2	0	0	1	0	10281,08	2,19502521	2,19548202	-1,0983566405872552	10	-0,0103296144	0,00241142232
2	0	0	0	0	10287,73	2,1285162	2,1289804	-1,5251681832596746	10	-0,0190354455	0,00324705313
2	0	0	0	0	10294,39	2,06200719	2,06246877	-1,985313023750983	10	-0,0306698084	0,00409464631
2	0	0	1	0	10301,04	1,99549794	1,99606752	-2,4866157273451536	10	-0,0455028936	0,00496345293
2	0	0	1	0	10307,69	1,92898881	1,92936563	-2,980121411383152	10	-0,0637526661	0,0057497439
2	0	0	0	0	10314,34	1,86247969	1,86311424	-3,4083685055375238	10	-0,0850099847	0,00635017967
2	0	0	0	0	10320,99	1,79597056	1,79653251	-3,8857658828298298	10	-0,109201767	0,00698090484
2	0	0	1	0	10327,64	1,72946155	1,72994077	-4,2270956486463584	10	-0,136225149	0,00731262518
2	0	0	0	0	10334,29	1,66295242	1,66354942	-4,5341238292554918	10	-0,165512398	0,00754273916
2	0	0	0	0	10340,94	1,59644306	1,5971278	-4,8606672237316653	10	-0,196764633	0,00776310684
2	0	0	1	0	10347,59	1,52993405	1,53034592	-5,1738141116996704	10	-0,230167359	0,00791772548
2	0	0	1	0	10354,24	1,46342504	1,4638443	-5,4623352500299661	10	-0,265495598	0,00799600873
2	0	0	0	0	10360,89	1,39691591	1,39748287	-5,6993823635081357	10	-0,30264774	0,00796478894
2	0	0	0	0	10367,55	1,33040679	1,3310914	-6,0469387918710643	10	-0,341855198	0,00804902799
2	0	0	1	0	10374,20	1,26389766	1,26428938	-6,2406726690630093	10	-0,382808954	0,00789001584
2	0	0	0	0	10380,85	1,19738853	1,19790792	-6,4241395046313498	10	-0,424958944	0,00769552775
2	0	0	0	0	10387,50	1,13087928	1,13140631	-6,5972426459193229	10	-0,468286842	0,00746416207
2	0	0	1	0	10394,15	1,06437027	1,06491482	-6,7345737045010022	10	-0,51247561	0,00717174727
2	0	0	1	0	10400,80	0,997861147	0,998292923	-6,9836533690492506	10	-0,558019102	0,00697173178
2	0	0	0	0	10407,45	0,931352079	0,93186152	-7,1333163951834138	10	-0,604971111	0,00664726319
2	0	0	0	0	10414,10	0,864842951	0,865289748	-7,3932352562745395	10	-0,653084815	0,00639729062
2	0	0	1	0	10420,75	0,798333883	0,798727989	-7,5178548792997901	10	-0,702582479	0,00600472093
2	0	0	0	0	10427,40	0,731824756	0,7323066	-7,5890958259503232	10	-0,753044903	0,005557545
2	0	0	0	0	10434,05	0,665315688	0,665955186	-7,6184569746256154	10	-0,803582847	0,00507355109
2	0	0	1	0	10440,71	0,59880656	0,599313378	-7,7026588593920448	10	-0,854587555	0,00461630663
2	0	0	1	0	10447,36	0,532297373	0,532881856	-7,751798090835415	10	-0,905920267	0,00413079234
2	1	0	0	0	10453,97	0,533797622	0,53429383	-7,4258613834778675	10	-0,95678252	0,00396759203
2	1	0	0	0	10460,62	0,600306749	0,600845456	-6,8236343363921037	10	-1,00416934	0,00409994973
2	1	0	1	0	10467,27	0,666815877	0,667136848	-6,3526208003361971	10	-1,04794455	0,00423806719
2	1	0	0	0	10473,92	0,733324945	0,733868718	-5,9061090114216205	10	-1,08873439	0,00433430867
2	1	0	0	0	10480,57	0,799834073	0,800330281	-5,5043035124739104	10	-1,12664378	0,00440526055
2	1	0	1	0	10487,22	0,866343141	0,866992116	-5,088019695132985	10	-1,16191542	0,00441127317
2	1	0	1	0	10493,87	0,932852268	0,933293402	-4,7035105961064544	10	-1,19442093	0,00438975543
2	1	0	0	0	10500,52	0,999361455	1,00000525	-4,3505029479662554	10	-1,22449982	0,00435052579
2	1	0	0	0	10507,18	1,06587052	1,06643689	-3,9898060758908685	10	-1,25224209	0,00425487617
2	1	0	1	0	10513,83	1,13237965	1,13299847	-3,7002079424758701	10	-1,27781272	0,00419232994
2	1	0	0	0	10520,48	1,19888866	1,19959021	-3,3511240805188826	10	-1,30123043	0,00401997566
2	1	0	0	0	10527,13	1,26539791	1,26616192	-3,015293665851161	10	-1,32232189	0,00381785003
2	1	0	1	0	10533,78	1,33190703	1,33244324	-2,719789227470759	10	-1,34136033	0,00362396473
2	1	0	1	0	10540,43	1,39841604	1,39891493	-2,4418464613457546	10	-1,35851324	0,00341593544
2	1	0	0	0	10547,08	1,46492529	1,46542645	-2,1719908521821037	10	-1,37386549	0,00318289292
2	1	0	0	0	10553,73	1,53143442	1,5320282	-1,9058507084846531	10	-1,38741171	0,00291981711
2	1	0	1	0	10560,38	1,59794331	1,59835958	-1,6598947892586438	10	-1,3992635	0,00265310868
2	1	0	0	0	10567,03	1,66445243	1,66507137	-1,420955327960355	10	-1,40949357	0,00236599194
2	1	0	0	0	10573,68	1,73096144	1,73137271	-1,1745186584691182	10	-1,41813087	0,00203352957
2	1	0	1	0	10580,34	1,79747081	1,79796433	-0,94190301249425088	10	-1,42515635	0,00169350801
2	1	0	1	0	10586,99	1,86397982	1,86480665	-0,7118916401329143	10	-1,43064666	0,00132754026
2	1	0	0	0	10593,68	1,93088901	1,93145847	-0,49041848241662048	10	-1,43466198	0,000947222929
2	1	0	0	0	10600,33	1,99739814	1,99790001	-0,27741163511139667	10	-1,43720591	0,000554240716
2	1	0	1	0	10606,98	2,06390738	2,06449175	-0,069400614282737139	10	-1,43835175	0,000143276993
2	1	0	0	0	10613,79	2,13201666	2,1325655	0,13750669391204883	10	-1,43811405	0,000293242018
2	1	0	0	0	10620,44	2,19852567	2,19893694	0,33534434600733344	10	-1,43653965	0,000737401075
2	1	0	1	0	10627,09	2,26503491	2,2655189	0,53163510390246861	10	-1,43365085	0,00120442943
2	1	0	1	0	10633,74	2,33154416	2,3319602	0,72922741125027366	10	-1,42945099	0,00170052925
2	1	0	0	0	10640,39	2,39805317	2,39842176	0,93115541525184755	10	-1,42392993	0,00223330338
2	1	0	0	0	10647,08	2,46496296	2,46541595	1,1414695839393598	10	-1,41699219	0,00281419721
2	1	0	1	0	10653,74	2,53147125	2,53192568	1,3508664493759461	10	-1,4087038	0,00342029356
2	1	0	0	0	10660,39	2,5979805	2,59841728	1,5737200602888989	10	-1,39901352	0,00408918131
2	1	0	0	0	10667,04	2,66448975	2,66505909	1,7883515972644054	10	-1,3878628	0,00476606283
2	1	0	1	0	10673,69	2,73099875	2,73169088	2,0235057001312589	10	-1,37517357	0,00552759226
2	1	0	1	0	10680,34	2,797508	2,79784203	2,2801409407208339	10	-1,36086917	0,00637947395
2	1	0	0	0	10686,99	2,86401677	2,86474419	2,5400422265132291	10	-1,34481454	0,00727657136
2	1	0	0	0	10693,64	2,93052602	2,93099546	2,7768216524273085	10	-1,32712758	0,00813885126
2	1	0	1	0	10700,29	2,99703526	2,99748707	3,0301160545398726	10	-1,30781376	0,00908273365
2	1	0	1	0	10706,94	3,06354356	3,06404662	3,2983010863341562	10	-1,28681946	0,0101061482
2	1	0	0	0	10713,59	3,13005328	3,13040018	3,5226022402445382	10	-1,26413608	0,0110271545
2	1	0	1	0	10720,24	3,19656229	3,19712186	3,7628063894808275	10	-1,23983836	0,0120301507
2	1	0	1	0	10726,90	3,26307154	3,26364374	4,0489369196196282	10	-1,2137959	0,0132142873
2	1	0	0	0	10733,55	3,32958055	3,32985473	4,3453120576838771	10	-1,18586302	0,0144692576
2	1	0	0	0	10740,20	3,39608955	3,39659667	4,6363831857839981	10	-1,15582275	0,0157479234
2	1	0	1	0	10746,85	3,46259904	3,46297789	4,8605657803515571	10	-1,12421441	0,0168320313
2	1	0	1	0	10753,50	3,52910709	3,52983856	5,3542233485760774	10	-1,09040034	0,0188995432
2	1	0	0	0	10760,15	3,59561729	3,59602141	5,5624757111072685	10	-1,05410373	0,0200027823
2	1	0	1	0	10766,80	3,66212606	3,66259313	6,0181799195706752	10	-1,01551366	0,0220421441
2	1	0	1	0	10773,45	3,72863555	3,72901464	6,5519802272319936	10	-0,974054992	0,02443243
2	1	0	0	0	10780,10	3,79514456	3,79565644	6,8734634543458522	10	-0,92921263	0,0260893051
2	1	0	0	0	10786,75	3,8616538	3,86239839	7,414648825923607	10	-0,88217181	0,0286383275
2	1	0	1	0	10793,40	3,92816281	3,92878985	8,1689379811286643	10	-0,830385685	0,032094039
2	1	0	1	0	10800,06	3,99467182	3,99539161	9,0170038814345754	10	-0,773807049	0,0360264629
2	1	0	0	0	10806,75	4,06158113	4,06210327	10,098303924004242	10	-0,709268034	0,0410203524
2	1	0	1	0	10813,40	4,1280899	4,12881517	11,394388144214933	10	-0,637123466	0,047045324
2	1	0	1	0	10820,05	4,19459963	4,19505644	13,251294627785682	10	-0,554507375	0,0555899292
2	0	0	1	1	10826,62	4,13969231	4,14013958	12,154412215998011	10	-0,470217884	0,0503209643
2	0	0	1	1	10833,27	4,07318258	4,07366943	11,001379052797979	10	-0,393001407	0,0448159799
2	0	0	0	1	10839,92	4,00667334	4,00706816	9,8614588429530342	10	-0,323589921	0,0395155363
2	0	0	0	1	10846,57	3,94016457	3,94064617	8,4889024396737229	10	-0,262593478	0,0334517621
2	0	0	1	1	10853,22	3,87365508	3,87413502	7,1118203128377434	10	-0,210742101	0,0275521521
2	0	0	1	1	10859,87	3,80714631	3,80747318	6,1431905254721638	10	-0,166895479	0,0233900324
2	0	0	0	1	10866,53	3,74063683	3,7410512	5,2105445315440339	10	-0,129251793	0,019492913
2	0	0	1	1	10873,22	3,67372775	3,67429924	4,455887807955328	10	-0,0970543697	0,0163722653
2	0	0	1	1	10879,87	3,6072185	3,60799789	3,8786281098921907	10	-0,0693883374	0,0139940819
2	0	0	0	1	10886,52	3,5407095	3,54103589	3,425013067821657	10	-0,0451526754	0,0121280942
2	0	0	0	1	10893,17	3,47420049	3,47471404	3,0597896563510003	10	-0,0236072019	0,0106318938
2	0	0	1	1	10899,82	3,40769124	3,40816259	2,7526003997772861	10	-0,00429134956	0,00938131008
2	0	0	1	1	10906,47	3,34118223	3,34164119	2,4859138093888758	10	0,0131063154	0,00830703229
2	0	0	0	1	10913,12	3,27467322	3,2751193	2,2542055199543648	10	0,0288477987	0,00738279196
2	0	0	1	1	10919,77	3,20816398	3,20854783	2,0528349168598653	10	0,0431529991	0,00658661919
2	0	0	1	1	10926,42	3,14165497	3,14211607	1,8724511402348618	10	0,0561936833	0,005883459
2	0	0	0	1	10933,07	3,07514572	3,07565498	1,7094453306247779	10	0,0681046024	0,00525766425
2	0	0	0	1	10939,73	3,00863695	3,00906301	1,5604478583360723	10	0,0789792389	0,00469548581
2	0	0	1	1	10946,38	2,9421277	2,94265151	1,4095679437741619	10	0,0888492689	0,00414786721
2	0	0	1	1	10953,03	2,8756187	2,87621999	1,261175012215972	10	0,0977173969	0,00362741668
2	0	0	0	1	10959,68	2,80910969	2,80949807	1,1147432271391149	10	0,105615102	0,00313186902
2	0	0	0	1	10966,33	2,74260116	2,74307799	0,96633504191980352	10	0,112534441	0,00265073241
2	0	0	1	1	10972,98	2,67609143	2,67659497	0,82107187652339507	10	0,118469246	0,0021976768
2	0	0	0	1	10979,63	2,60958219	2,60993314	0,67246903805061824	10	0,123442173	0,00175509928
2	0	0	0	1	10986,28	2,54307294	2,54348159	0,51200448302552102	10	0,127390221	0,00130227394
2	0	0	1	1	10992,97	2,47616363	2,47652936	0,3083471043501047	10	0,130159348	0,000763630669
2	0	0	1	1	10999,66	2,40925455	2,40959716	0,04494648376324528	10	0,131372333	0,00010830292
2	0	0	0	1	11001,04	2,39545321	2,3959887	-0,016807351106156902	10	0,131391719	4,02702244E-005