File: Experimentelles/Ausgewaehlte_Daten/LTO/PEIS/LTO_Korrosion_07_PEIS_C02.mpt
EC-Lab ASCII FILE
Nb header lines : 62

Potentio Electrochemical Impedance Spectroscopy

Run on channel : 2 (SN 6986)
Grouped channel(s) : 2
User :
CE vs. WE compliance from -10 V to 10 V
Electrode connection : standard
Ewe ctrl range : min = 0,00 V, max = 5,00 V
Acquisition started on : 09.04.2015 14:14:19
Saved on :
	File : LTO_Korrosion_07_PEIS_C02.mpr
	Directory : C:\Gielisch\AlteZelle\150904_LTO_Korrosion\
	Host : 192.168.0.2
Device : VMP3 (SN 0324)
Address : 192.168.0.1
EC-Lab for windows v10.33 (software)
Internet server v10.33 (firmware)
Command interpretor v10.32 (firmware)
Electrode material :
Initial state :
Electrolyte :
Comments :
Electrode surface area : 0,001 cm²
Characteristic mass : 0,001 g
Equivalent Weight : 0,000 g/eq.
Density : 0,000 g/cm3
Multi Sine          0
E (V)               0,0000
vs.                 Eoc
tE (h:m:s)          0:00:0,0000
record              0
dI                  0,000
unit dI             mA
dt (s)              0,000
fi                  1,000
unit fi             MHz
ff                  1,000
unit ff             Hz
Sel Nd              1
Nd                  6
Nt                  51
Log                 1
Va (mV)             10,0
pw                  0,10
Na                  2
E range min (V)     0,000
E range max (V)     5,000
I Range             Auto
Bandwidth           5
corr                0
nc cycles           0
goto Ns'            0
nr cycles           0
inc. cycle          0

Number of loops : 1
Loop 0 from point number 0 to 36

freq/Hz	Re(Z)/Ohm	-Im(Z)/Ohm	|Z|/Ohm	Phase(Z)/deg	time/s	<Ewe>/V	<I>/mA	Cs/µF	Cp/µF	cycle number	I Range	|Ewe|/V	|I|/A	Re(Y)/Ohm-1	Im(Y)/Ohm-1	|Y|/Ohm-1	Phase(Y)/deg
1000024,25	17,0275078	-3,41087365	17,3657742	11,3273125	212450,4378	1,50191808	-0,0171955526	-0,0466599166	-0,00180005981	1	10	0,000774849264	4,46193335E-005	0,0564628504	-0,0113103837	0,0575845316	-11,3273125
681286,5	14,7588329	-2,07982731	14,9046583	8,02134991	212451,6698	1,50250244	-0,0109175211	-0,112321548	-0,00218712469	1	10	0,00239175279	0,000160470154	0,0664366931	-0,0093623139	0,067093119	-8,02134991
464160,125	14,5485783	-1,11406195	14,5911703	4,37889671	212452,9018	1,50268269	-0,0102429371	-0,307781845	-0,00179424358	1	10	0,00692210905	0,000474403962	0,0683345422	-0,0052327388	0,0685345978	-4,37889671
316223,094	14,4826822	-0,336051255	14,4865808	1,32923341	212453,2158	1,50254345	-0,0126039479	-1,49768686	-0,000805935531	1	10	0,0105558978	0,000728667306	0,069010824	-0,00160130381	0,0690293983	-1,32923341
215441,859	14,4810696	0,331029594	14,4848528	-1,30952311	212453,6318	1,50245488	-0,0126188546	2,23163533	0,00116554403	1	10	0,0101875197	0,000703322294	0,0690196082	0,00157775171	0,0690376386	1,30952311
146777,328	14,5620499	1,02744019	14,5982513	-4,03587341	212454,0478	1,5024246	-0,0128909219	1,05536973	0,0052277646	1	10	0,0101520447	0,000695428811	0,06833148	0,00482119666	0,0685013533	4,03587341
100024,406	14,6800833	1,83313167	14,7940941	-7,11779642	212454,3618	1,50229764	-0,0190757774	0,868001521	0,0133269588	1	10	0,0108945686	0,000736413349	0,0670736283	0,00837561954	0,0675945431	7,11779642
68127,4297	14,9477425	2,81337881	15,2101974	-10,6591864	212454,6758	1,50240278	-0,0124772321	0,830366731	0,0284090452	1	10	0,0107004289	0,000703503611	0,0646109208	0,0121606989	0,0657453686	10,6591864
46411,125	15,3588161	4,10035801	15,8967342	-14,9476929	212454,9898	1,50241828	-0,0123281544	0,836327314	0,0556421615	1	10	0,0104536256	0,00065759581	0,0607773736	0,0162257925	0,0629060045	14,9476929
31628,4121	16,0943241	5,74829865	17,0900612	-19,6548538	212455,3038	1,50239897	-0,0123244291	0,875393689	0,0990363955	1	10	0,0102077639	0,000597292383	0,0551043004	0,0196812246	0,0585135408	19,6548538
21545,4082	17,3555527	7,84118366	19,0446682	-24,3133011	212455,6178	1,50240731	-0,0118045239	0,942071319	0,159698263	1	10	0,0101658329	0,000533788931	0,047851067	0,0216189604	0,0525081344	24,3133011
14672,8496	19,4335327	10,2799864	21,9850025	-27,878027	212455,8298	1,50240505	-0,011709488	1,05514741	0,230698705	1	10	0,0104116313	0,00047357881	0,0402067266	0,0212686285	0,0454855524	27,878027
10015,2705	22,6846962	12,737709	26,0162392	-29,3146935	212456,0821	1,50244164	-0,00947705377	1,24757349	0,299060971	1	10	0,0103846276	0,000399159442	0,0335153639	0,0188192483	0,0384375304	29,3146935
6856,00244	27,0631123	14,513217	30,7090454	-28,2034588	212456,4325	1,50244081	-0,010103181	1,59950459	0,357256562	1	10	0,0103082461	0,000335674587	0,0286975671	0,0153897312	0,0325636938	28,2034588
4642,42725	32,1475105	15,2443228	35,5788116	-25,3702679	212456,8837	1,50244105	-0,0100407563	2,24888325	0,412857592	1	10	0,0096066352	0,000270010001	0,0253959522	0,0120427385	0,0281066168	25,3702679
3160,05566	37,0273552	14,607111	39,8044319	-21,5289917	212457,5797	1,50244772	-0,0115731703	3,44795108	0,464330137	1	11	0,0102201784	0,000256759813	0,0233700611	0,00921937451	0,0251228306	21,5289917
2152,93286	41,301403	13,0981598	43,3286018	-17,5956917	212458,0312	1,5024426	-0,0114651853	5,64390087	0,515763462	1	11	0,010220876	0,000235892134	0,0219996348	0,00697687455	0,0230794437	17,5956917
1468,58972	44,6936798	11,0823364	46,047184	-13,9262934	212458,4822	1,50244641	-0,0113071231	9,77886295	0,566428185	1	11	0,0102018258	0,000221551571	0,0210785139	0,00522667123	0,0217168555	13,9262934
999,040405	47,2115593	8,96581936	48,0553551	-10,75284	212458,9332	1,50244308	-0,0111762909	17,7683506	0,618505418	1	11	0,0101861944	0,000211967941	0,020443948	0,00388245471	0,0208093356	10,75284
681,089661	48,9067154	6,99980974	49,4051018	-8,14518356	212459,3837	1,50243866	-0,0110685844	33,3833275	0,67012912	1	11	0,0101743247	0,000205936725	0,0200366396	0,00286775897	0,0202408247	8,14518356
464,553894	50,0421257	5,36117601	50,3284874	-6,11495972	212459,8352	1,50244164	-0,0109035289	63,9033966	0,725130796	1	11	0,0101684248	0,000202041134	0,0197564103	0,00211656839	0,0198694635	6,11495972
316,315765	50,7741051	4,09879494	50,9392776	-4,61525631	212460,2841	1,50244141	-0,0108373193	122,756096	0,79478544	1	11	0,0101651633	0,000199554517	0,0195675623	0,00157961284	0,0196312163	4,61525631
215,344498	51,2768402	3,14099383	51,3729515	-3,50530767	212460,7347	1,50244009	-0,010689049	235,298538	0,87959832	1	11	0,0101623544	0,000197815272	0,0194290802	0,00119014003	0,0194654968	3,50530767
146,737289	51,6255684	2,47984147	51,6850929	-2,75009704	212461,1816	1,50242651	-0,0105783585	437,37677	1,00686896	1	11	0,0101603428	0,000196581692	0,019325655	0,000928310561	0,0193479378	2,75009704
99,9040375	51,8821793	2,03232241	51,9219704	-2,24323654	212461,6332	1,50242615	-0,0104994671	783,870789	1,2009567	1	11	0,0101602599	0,000195683257	0,0192449093	0,000753859291	0,0192596689	2,24323654
68,1888962	52,1230621	1,76318681	52,152874	-1,93742752	212462,0953	1,50243139	-0,0102935676	1323,75659	1,51303267	1	11	0,0101622036	0,000194854147	0,0191634372	0,000648248941	0,0191743989	1,93742752
46,3802681	52,324604	1,63614929	52,3501778	-1,7910105	212462,5340	1,50242507	-0,0103682615	2097,31616	2,04867697	1	11	0,0101590594	0,000194059699	0,0190928001	0,000597016886	0,0191021319	1,7910105
31,5869217	52,5331917	1,650509	52,5591125	-1,79954994	212462,9639	1,50242972	-0,0100437449	3052,77588	3,01047277	1	11	0,0101584112	0,000193275933	0,0190168116	0,000597477891	0,0190261956	1,79954994
21,5220375	52,7562675	1,77014732	52,7859573	-1,92174208	212463,3858	1,50243104	-0,0102046048	4177,60498	4,69796085	1	11	0,0101591917	0,000192460124	0,0189337786	0,000635290926	0,018944433	1,92174208
14,6851501	53,0487938	1,98959279	53,0860901	-2,14786911	212463,8463	1,5024339	-0,010026494	5447,25293	7,65146303	1	11	0,0101598306	0,000191384039	0,018824093	0,000705996819	0,0188373271	2,14786911
9,9904108	53,3640327	2,4195497	53,4188576	-2,59603882	212464,2972	1,50243652	-0,0103194909	6584,18848	13,5077229	1	11	0,0101597589	0,000190190491	0,0187007692	0,000847901392	0,0187199805	2,59603882
6,81718969	53,7933121	2,96367884	53,8748894	-3,15345526	212464,6366	1,5024364	-0,00912539847	7877,4126	23,8381805	1	11	0,0101621849	0,000188625636	0,018533418	0,00102107669	0,0185615234	3,15345526
4,63925123	54,288147	3,62718439	54,4091835	-3,82245398	212465,1215	1,50243723	-0,00992373005	9458,07227	42,0336838	1	11	0,0101583907	0,000186703604	0,0183383636	0,00122525147	0,0183792505	3,82245398
3,16039586	54,8725815	4,654634	55,0696449	-4,8485775	212465,8155	1,50243688	-0,0103376089	10819,1494	77,2929001	1	11	0,0101626813	0,000184542339	0,018093843	0,00153483241	0,0181588233	4,8485775
2,1522038	55,6449127	5,85386133	55,9519806	-6,00544405	212467,3298	1,50243616	-0,00913319085	12632,6455	138,276459	1	12	0,0101619149	0,000181618496	0,0177743826	0,00186987047	0,0178724676	6,00544405
1,46630979	56,6994553	7,56998301	57,2025604	-7,60462666	212468,7912	1,50243998	-0,00777699566	14338,3613	251,10675	1	12	0,0101719927	0,000177824084	0,0173279811	0,00231347047	0,017481735	7,60462666
0,998529792	57,7962532	9,46152973	58,5655823	-9,29713345	212470,9230	1,50243747	-0,00801777653	16846,0371	439,678802	1	12	0,0101604322	0,000173488108	0,0168505758	0,00275852205	0,0170748755	9,29713345