File: Experimentelles/Rohdaten/Batteriemessungen/AlteZelle/Studenten_Batterietests/S+C_LATP_Au/OCV_PEIS/ZView-Export/Test01_01_OCV_C03.txt
EC-Lab ASCII FILE
Nb header lines : 37

Open Circuit Voltage

Run on channel : 3 (SN 6987)
Grouped channel(s) : 3
User :
CE vs. WE compliance from -10 V to 10 V
Electrode connection : standard
Ewe ctrl range : min = -10,00 V, max = 10,00 V
Acquisition started on : 02.10.2015 15:28:29
Saved on :
	File : Test01_01_OCV_C03.mpr
	Directory : C:\Hupfer\Studenten Batterietests\S+C_LATP_Au\OCV_PEIS\
	Host : 192.168.0.2
Device : VMP3 (SN 0324)
Address : 192.168.0.1
EC-Lab for windows v10.33 (software)
Internet server v10.33 (firmware)
Command interpretor v10.32 (firmware)
Electrode material :
Initial state :
Electrolyte :
Comments :
Electrode surface area : 0,001 cm²
Characteristic mass : 0,001 g
Equivalent Weight : 0,000 g/eq.
Density : 0,000 g/cm3
tR (h:m:s)          0:10:30,0000
dER/dt (mV/h)       1,0
dER (mV)            1,00
dtR (s)             0,5000
E range min (V)     -10,000
E range max (V)     10,000

mode	error	time/s	Ewe/V
3	1	0,0000	3,04471268E-005
3	0	1,5000	-7,68012069E-006
3	0	3,0000	4,95107524E-005
3	0	4,5000	-8,39346103E-005
3	0	6,0000	-7,68012069E-006
3	0	7,5000	-4,58073664E-005
3	0	9,0000	-2,67437445E-005
3	0	10,5000	3,04471268E-005
3	0	12,0000	0,000163892502
3	0	13,5000	1,13835031E-005
3	0	15,0000	0,000125765248
3	0	16,5000	-4,58073664E-005
3	0	18,0000	-7,68012069E-006
3	0	19,5000	3,04471268E-005
3	0	21,0000	4,95107524E-005
3	0	22,5000	-2,67437445E-005
3	0	24,0000	8,7638E-005
3	0	25,5000	4,95107524E-005
3	0	27,0000	-2,67437445E-005
3	0	28,5000	0,000106701627
3	0	30,0000	-7,68012069E-006
3	0	31,5000	1,13835031E-005
3	0	33,0000	-7,68012069E-006
3	0	34,5000	-8,39346103E-005
3	0	36,0000	4,95107524E-005
3	0	37,5000	4,95107524E-005
3	0	39,0000	6,85743798E-005
3	0	40,5000	3,04471268E-005
3	0	42,0000	6,85743798E-005
3	0	43,5000	0,000278274238
3	0	45,0000	0,000125765248
3	0	46,5000	0,000182956122
3	0	48,0000	0,000392655988
3	0	49,5000	0,000335465127
3	0	51,0000	0,000335465127
3	0	52,5000	0,000335465127
3	0	54,0000	0,000335465127
3	0	55,5000	0,000335465127
3	0	57,0000	0,000526101387
3	0	58,5000	0,000240146997
3	0	60,0000	0,000354528747
3	0	61,5000	0,000316401507
3	0	63,0000	0,000354528747
3	0	64,5000	0,000297337887
3	0	66,0000	0,000297337887
3	0	67,5000	0,000278274238
3	0	69,0000	0,000316401507
3	0	70,5000	0,000335465127
3	0	72,0000	0,000125765248
3	0	73,5000	0,000240146997
3	0	75,0000	0,000163892502
3	0	76,5000	0,000125765248
3	0	78,0000	0,000297337887
3	0	79,5000	0,000202019743
3	0	81,0000	0,000144828882
3	0	82,5000	0,000163892502
3	0	84,0000	6,85743798E-005
3	0	85,5000	6,85743798E-005
3	0	87,0000	8,7638E-005
3	0	88,5000	0,000144828882
3	0	90,0000	1,13835031E-005
3	0	91,5000	6,85743798E-005
3	0	93,0000	1,13835031E-005
3	0	94,5000	4,95107524E-005
3	0	96,0000	1,13835031E-005
3	0	97,5000	8,7638E-005
3	0	99,0000	6,85743798E-005
3	0	100,5000	3,04471268E-005
3	0	102,0000	4,95107524E-005
3	0	103,5000	-7,68012069E-006
3	0	105,0000	1,13835031E-005
3	0	106,5000	-0,000122061858
3	0	108,0000	0,000106701627
3	0	109,5000	3,04471268E-005
3	0	111,0000	-2,67437445E-005
3	0	112,5000	-4,58073664E-005
3	0	114,0000	3,04471268E-005
3	0	115,5000	-7,68012069E-006
3	0	117,0000	8,7638E-005
3	0	118,5000	6,85743798E-005
3	0	120,0000	0,000182956122
3	0	121,5000	0,000182956122
3	0	123,0000	0,000373592367
3	0	124,5000	0,000354528747
3	0	126,0000	0,000297337887
3	0	127,5000	0,000411719608
3	0	129,0000	0,000487974117
3	0	130,5000	0,000373592367
3	0	132,0000	0,000507037737
3	0	133,5000	0,000430783228
3	0	135,0000	0,000564228627
3	0	136,5000	0,000621419516
3	0	138,0000	0,000545164978
3	0	139,5000	0,000602355867
3	0	141,0000	0,000487974117
3	0	142,5000	0,000602355867
3	0	144,0000	0,000507037737
3	0	145,5000	0,000564228627
3	0	147,0000	0,000507037737
3	0	148,5000	0,000449846877
3	0	150,0000	0,000354528747
3	0	151,5000	0,000392655988
3	0	153,0000	0,000182956122
3	0	154,5000	0,000297337887
3	0	156,0000	0,000106701627
3	0	157,5000	6,85743798E-005
3	0	159,0000	1,13835031E-005
3	0	160,5000	4,95107524E-005
3	0	162,0000	0,000106701627
3	0	163,5000	-6,48709902E-005
3	0	165,0000	0,000106701627
3	0	166,5000	-0,000102998238
3	0	168,0000	-6,48709902E-005
3	0	169,5000	0,000106701627
3	0	171,0000	0,000106701627
3	0	172,5000	0,000221083377
3	0	174,0000	0,000144828882
3	0	175,5000	0,000335465127
3	0	177,0000	0,000316401507
3	0	178,5000	0,000297337887
3	0	180,0000	0,000373592367
3	0	181,5000	0,000316401507
3	0	183,0000	0,000468910497
3	0	184,5000	0,000602355867
3	0	186,0000	0,000526101387
3	0	187,5000	0,000545164978
3	0	189,0000	0,000621419516
3	0	190,5000	0,000659546757
3	0	192,0000	0,000564228627
3	0	193,5000	0,000468910497
3	0	195,0000	0,000392655988
3	0	196,5000	0,000411719608
3	0	198,0000	0,000411719608
3	0	199,5000	0,000202019743
3	0	201,0000	0,000259210618
3	0	202,5000	0,000106701627
3	0	204,0000	0,000144828882
3	0	205,5000	6,85743798E-005
3	0	207,0000	-2,67437445E-005
3	0	208,5000	-6,48709902E-005
3	0	210,0000	-6,48709902E-005
3	0	211,5000	3,04471268E-005
3	0	213,0000	-4,58073664E-005
3	0	214,5000	-2,67437445E-005
3	0	216,0000	-2,67437445E-005
3	0	217,5000	-7,68012069E-006
3	0	219,0000	6,85743798E-005
3	0	220,5000	0,000125765248
3	0	222,0000	-2,67437445E-005
3	0	223,5000	0,000202019743
3	0	225,0000	0,000182956122
3	0	226,5000	0,000240146997
3	0	228,0000	0,000278274238
3	0	229,5000	0,000335465127
3	0	231,0000	0,000411719608
3	0	232,5000	0,000354528747
3	0	234,0000	0,000411719608
3	0	235,5000	0,000430783228
3	0	237,0000	0,000564228627
3	0	238,5000	0,000526101387
3	0	240,0000	0,000449846877
3	0	241,5000	0,000259210618
3	0	243,0000	0,000335465127
3	0	244,5000	0,000392655988
3	0	246,0000	0,000259210618
3	0	247,5000	8,7638E-005
3	0	249,0000	0,000221083377
3	0	250,5000	6,85743798E-005
3	0	252,0000	-6,48709902E-005
3	0	253,5000	-2,67437445E-005
3	0	255,0000	-2,67437445E-005
3	0	256,5000	1,13835031E-005
3	0	258,0000	-0,000102998238
3	0	259,5000	-4,58073664E-005
3	0	261,0000	4,95107524E-005
3	0	262,5000	-0,000102998238
3	0	264,0000	-0,000141125478
3	0	265,5000	-2,67437445E-005
3	0	267,0000	-7,68012069E-006
3	0	268,5000	4,95107524E-005
3	0	270,0000	4,95107524E-005
3	0	271,5000	3,04471268E-005
3	0	273,0000	0,000125765248
3	0	274,5000	8,7638E-005
3	0	276,0000	0,000278274238
3	0	277,5000	0,000240146997
3	0	279,0000	0,000144828882
3	0	280,5000	0,000316401507
3	0	282,0000	0,000297337887
3	0	283,5000	0,000449846877
3	0	285,0000	0,000449846877
3	0	286,5000	0,000430783228
3	0	288,0000	0,000526101387
3	0	289,5000	0,000316401507
3	0	291,0000	0,000564228627
3	0	292,5000	0,000697673997
3	0	294,0000	0,000545164978
3	0	295,5000	0,000449846877
3	0	297,0000	0,000507037737
3	0	298,5000	0,000430783228
3	0	300,0000	0,000278274238
3	0	301,5000	0,000373592367
3	0	303,0000	0,000411719608
3	0	304,5000	0,000335465127
3	0	306,0000	0,000335465127
3	0	307,5000	0,000202019743
3	0	309,0000	0,000202019743
3	0	310,5000	6,85743798E-005
3	0	312,0000	0,000182956122
3	0	313,5000	-7,68012069E-006
3	0	315,0000	0,000144828882
3	0	316,5000	0,000144828882
3	0	318,0000	-7,68012069E-006
3	0	319,5000	-0,000160189098
3	0	321,0000	4,95107524E-005
3	0	322,5000	1,13835031E-005
3	0	324,0000	-2,67437445E-005
3	0	325,5000	-4,58073664E-005
3	0	327,0000	-2,67437445E-005
3	0	328,5000	-0,000102998238
3	0	330,0000	-2,67437445E-005
3	0	331,5000	-7,68012069E-006
3	0	333,0000	-6,48709902E-005
3	0	334,5000	6,85743798E-005
3	0	336,0000	-6,48709902E-005
3	0	337,5000	4,95107524E-005
3	0	339,0000	-7,68012069E-006
3	0	340,5000	8,7638E-005
3	0	342,0000	0,000240146997
3	0	343,5000	0,000125765248
3	0	345,0000	0,000125765248
3	0	346,5000	0,000202019743
3	0	348,0000	0,000278274238
3	0	349,5000	0,000430783228
3	0	351,0000	0,000468910497
3	0	352,5000	0,000468910497
3	0	354,0000	0,000468910497
3	0	355,5000	0,000468910497
3	0	357,0000	0,000449846877
3	0	358,5000	0,000507037737
3	0	360,0000	0,000507037737
3	0	361,5000	0,000545164978
3	0	363,0000	0,000583292218
3	0	364,5000	0,000602355867
3	0	366,0000	0,000526101387
3	0	367,5000	0,000507037737
3	0	369,0000	0,000507037737
3	0	370,5000	0,000430783228
3	0	372,0000	0,000507037737
3	0	373,5000	0,000449846877
3	0	375,0000	0,000411719608
3	0	376,5000	0,000430783228
3	0	378,0000	0,000335465127
3	0	379,5000	0,000278274238
3	0	381,0000	0,000373592367
3	0	382,5000	0,000354528747
3	0	384,0000	0,000125765248
3	0	385,5000	0,000125765248
3	0	387,0000	8,7638E-005
3	0	388,5000	0,000106701627
3	0	390,0000	-7,68012069E-006
3	0	391,5000	3,04471268E-005
3	0	393,0000	-0,000122061858
3	0	394,5000	-8,39346103E-005
3	0	396,0000	-8,39346103E-005
3	0	397,5000	-0,000141125478
3	0	399,0000	-6,48709902E-005
3	0	400,5000	-0,000102998238
3	0	402,0000	-8,39346103E-005
3	0	403,5000	-8,39346103E-005
3	0	405,0000	-7,68012069E-006
3	0	406,5000	-0,000122061858
3	0	408,0000	3,04471268E-005
3	0	409,5000	-6,48709902E-005
3	0	411,0000	8,7638E-005
3	0	412,5000	4,95107524E-005
3	0	414,0000	3,04471268E-005
3	0	415,5000	0,000144828882
3	0	417,0000	0,000278274238
3	0	418,5000	0,000202019743
3	0	420,0000	0,000430783228
3	0	421,5000	0,000297337887
3	0	423,0000	0,000392655988
3	0	424,5000	0,000545164978
3	0	426,0000	0,000449846877
3	0	427,5000	0,000335465127
3	0	429,0000	0,000487974117
3	0	430,5000	0,000564228627
3	0	432,0000	0,000526101387
3	0	433,5000	0,000507037737
3	0	435,0000	0,000526101387
3	0	436,5000	0,000507037737
3	0	438,0000	0,000526101387
3	0	439,5000	0,000564228627
3	0	439,8922	-2,67437445E-005