File: Experimentelles/Rohdaten/Batterietests/AlteZelle/Studenten_Batterietests/SemArbeitToph/ECLab-Export/Al_rein_02_02_OCV_C01.mpt
EC-Lab ASCII FILE
Nb header lines : 43

Open Circuit Voltage

Run on channel : 1 (SN 6985)
Grouped channel(s) : 1
User :
CE vs. WE compliance from -10 V to 10 V
Electrode connection : standard
Ewe ctrl range : min = -10,00 V, max = 10,00 V
Acquisition started on : 03.13.2015 16:19:02
Saved on :
	File : Al_rein_02_02_OCV_C01.mpr
	Directory : C:\Hupfer\Studenten Batterietests\SemArbeitToph\
	Host : 192.168.0.2
Device : VMP3 (SN 0324)
Address : 192.168.0.1
EC-Lab for windows v10.33 (software)
Internet server v10.33 (firmware)
Command interpretor v10.32 (firmware)
Electrode material :
Initial state :
Electrolyte :
Comments :
Mass of active material : 0,001 mg
 at x = 0,000
Molecular weight of active material (at x = 0) : 0,001 g/mol
Atomic weight of intercalated ion : 0,001 g/mol
Acquisition started at : xo = 0,000
Number of e- transfered per intercalated ion : 1
for DX = 1, DQ = 26,801 mA.h
Battery capacity : 0,000 A.h
Electrode surface area : 0,001 cm²
Characteristic mass : 0,001 g
tR (h:m:s)          0:10:0,0000
dER/dt (mV/h)       1,0
dER (mV)            1,00
dtR (s)             0,5000
E range min (V)     -10,000
E range max (V)     10,000

mode	error	time/s	Ewe/V
3	0	20708,3115	4,20217228
3	0	20710,8115	4,20234394
3	0	20713,3115	4,20242071
3	0	20715,8115	4,20305061
3	0	20718,3115	4,20272589
3	0	20720,8115	4,20341349
3	0	20723,3115	4,20350885
3	0	20725,8115	4,20364285
3	0	20728,3115	4,203547
3	0	20730,8115	4,20352793
3	0	20733,3115	4,20352793
3	0	20735,8115	4,20350885
3	0	20738,3115	4,20381451
3	0	20740,8115	4,20408201
3	0	20743,3115	4,20362377
3	0	20745,8115	4,20377636
3	0	20748,3115	4,20345163
3	0	20750,8115	4,20364285
3	0	20753,3115	4,20385265
3	0	20755,8115	4,2038908
3	0	20758,3115	4,2045784
3	0	20760,8115	4,20442533
3	0	20763,3115	4,20452118
3	0	20765,8115	4,20490313
3	0	20768,3115	4,2052083
3	0	20770,8115	4,20570469
3	0	20773,3115	4,20665979
3	0	20775,8115	4,20650673
3	0	20778,3115	4,20627785
3	0	20780,8115	4,20709896
3	0	20783,3115	4,20698404
3	0	20785,8115	4,20688868
3	0	20788,3115	4,20704174
3	0	20790,8115	4,20706081
3	0	20793,3115	4,2075572
3	0	20795,8115	4,20725155
3	0	20798,3115	4,20725155
3	0	20800,8115	4,20774794
3	0	20803,3115	4,20780516
3	0	20805,8115	4,20830202
3	0	20808,3115	4,20809174
3	0	20810,8115	4,20862627
3	0	20813,3115	4,20925665
3	0	20815,8115	4,20891285
3	0	20818,3115	4,20931387
3	0	20820,8115	4,20961952
3	0	20823,3115	4,20973396
3	0	20825,8115	4,20967674
3	0	20828,3115	4,20969582
3	0	20830,8115	4,20965767
3	0	20833,3115	4,21009684
3	0	20835,8115	4,21021128
3	0	20838,3115	4,21007776
3	0	20840,8115	4,20998192
3	0	20843,3115	4,21011591
3	0	20845,8115	4,21051693
3	0	20848,3115	4,21002054
3	0	20850,8115	4,21021128
3	0	20853,3115	4,21040201
3	0	20855,8115	4,21074581
3	0	20858,3115	4,21093702
3	0	20860,8115	4,21112776
3	0	20863,3115	4,21147156
3	0	20865,1155	4,20927572
3	0	20867,6155	4,20866442
3	0	20870,1155	4,20933294
3	0	20872,6155	4,20919943
3	0	20875,1155	4,20952368
3	0	20877,6155	4,20954275
3	0	20880,1155	4,2092948
3	0	20882,3603	4,21015406
3	0	20884,8603	4,2098484
3	0	20887,3603	4,20986748
3	0	20889,8603	4,2102685
3	0	20892,3603	4,21024942
3	0	20894,8603	4,21040201
3	0	20897,3603	4,21057415
3	0	20899,8603	4,21074581
3	0	20902,3603	4,21076488
3	0	20904,8603	4,21101332
3	0	20907,3603	4,21093702
3	0	20909,8603	4,21080303
3	0	20912,3603	4,21089888
3	0	20914,8603	4,21072674
3	0	20917,3603	4,21089888
3	0	20919,8603	4,21070766
3	0	20922,3603	4,21099424
3	0	20924,8603	4,21051693
3	0	20927,3603	4,21047878
3	0	20929,8603	4,21036386
3	0	20932,3603	4,21030664
3	0	20934,8603	4,21040201
3	0	20937,3603	4,21082211
3	0	20939,8603	4,21074581
3	0	20942,3603	4,210536
3	0	20944,8603	4,21047878
3	0	20947,3603	4,21023035
3	0	20949,8603	4,21030664
3	0	20952,3603	4,21091795
3	0	20954,8603	4,21030664
3	0	20957,3603	4,21049786
3	0	20959,8603	4,2106123
3	0	20962,3603	4,21034479
3	0	20964,8603	4,21013498
3	0	20967,3603	4,21133804
3	0	20969,8603	4,21072674
3	0	20972,3603	4,21093702
3	0	20974,8603	4,21028757
3	0	20977,3603	4,2102685
3	0	20979,8603	4,21028757
3	0	20982,3603	4,21133804
3	0	20984,8603	4,21066952
3	0	20987,3603	4,21082211
3	0	20989,8603	4,21065044
3	0	20992,3603	4,21047878
3	0	20994,8603	4,21042109
3	0	20997,3603	4,21068859
3	0	20999,8603	4,21045971
3	0	21002,3603	4,2106123
3	0	21004,8603	4,21080303
3	0	21007,3603	4,21097517
3	0	21009,8603	4,21070766
3	0	21012,3603	4,21068859
3	0	21014,8603	4,2112422
3	0	21017,3603	4,21086073
3	0	21019,8603	4,21099424
3	0	21022,3603	4,21045971
3	0	21024,8603	4,21065044
3	0	21027,3603	4,21072674
3	0	21029,8603	4,2108798
3	0	21032,3603	4,21110868
3	0	21034,8603	4,21105146
3	0	21037,2655	4,21317101
3	0	21039,7655	4,21141434
3	0	21042,2655	4,21149063
3	0	21044,7655	4,21143341
3	0	21047,2655	4,21246433
3	0	21049,7655	4,21259832
3	0	21052,2655	4,21256018
3	0	21054,7655	4,21278906
3	0	21057,2655	4,21236897
3	0	21059,7655	4,21257925
3	0	21062,2655	4,21254063
3	0	21064,7655	4,21250248
3	0	21067,2655	4,21278906
3	0	21069,7655	4,21267462
3	0	21072,2655	4,21298027
3	0	21074,7655	4,21364832
3	0	21077,2655	4,21374369
3	0	21079,7655	4,21404934
3	0	21082,2655	4,21383953
3	0	21084,7655	4,21404934
3	0	21087,2629	4,21452665
3	0	21089,6255	4,21443129
3	0	21092,1255	4,21452665
3	0	21094,6255	4,21529055
3	0	21097,1255	4,21506119
3	0	21099,6255	4,21475601
3	0	21102,1255	4,21437407
3	0	21104,6255	4,21485138
3	0	21107,1255	4,21477509
3	0	21109,6255	4,21454573
3	0	21112,1255	4,21446943
3	0	21114,6255	4,21477509
3	0	21117,1255	4,21513796
3	0	21119,6255	4,21555805
3	0	21121,8969	4,21698999
3	0	21124,3969	4,21647453
3	0	21126,8969	4,21626425
3	0	21129,3969	4,21565342
3	0	21131,5375	4,21607351
3	0	21134,0375	4,21509981
3	0	21136,5375	4,21485138
3	0	21139,0375	4,21488953
3	0	21141,5375	4,21509981
3	0	21144,0375	4,21450758
3	0	21146,5375	4,21467972
3	0	21149,0375	4,21546221
3	0	21151,5375	4,21487045
3	0	21154,0375	4,21519518
3	0	21156,5375	4,21511889
3	0	21159,0375	4,21500397
3	0	21161,5375	4,21504211
3	0	21164,0375	4,21496582
3	0	21166,5375	4,21475601
3	0	21169,0375	4,21483231
3	0	21171,5375	4,21469879
3	0	21174,0375	4,21448851
3	0	21176,5375	4,21496582
3	0	21179,0375	4,2152524
3	0	21181,5375	4,21551943
3	0	21184,0375	4,21582508
3	0	21186,5375	4,21649361
3	0	21189,0375	4,21651268
3	0	21191,4895	4,21494675
3	0	21193,9895	4,21542406
3	0	21196,4895	4,21590137
3	0	21198,9895	4,21574879
3	0	21201,4895	4,21555805
3	0	21203,9895	4,21586323
3	0	21206,4895	4,21565342
3	0	21208,9895	4,21614981
3	0	21211,4895	4,21613073
3	0	21213,9895	4,21578693
3	0	21216,4895	4,21626425
3	0	21218,9895	4,21647453
3	0	21221,4895	4,21584415
3	0	21223,9895	4,21597815
3	0	21226,4895	4,21599722
3	0	21228,9895	4,21584415
3	0	21231,4895	4,21593952
3	0	21233,9895	4,21595907
3	0	21236,4895	4,21611166
3	0	21238,9895	4,21584415
3	0	21241,4895	4,21609259
3	0	21243,9895	4,21569157
3	0	21246,4895	4,21582508
3	0	21248,9895	4,21563435
3	0	21251,4895	4,21593952
3	0	21253,9895	4,21624517
3	0	21256,4895	4,21698999
3	0	21258,9895	4,21637917
3	0	21261,4895	4,21630239
3	0	21263,9895	4,21649361
3	0	21266,4895	4,21651268
3	0	21268,9895	4,21674156
3	0	21271,4895	4,21704721
3	0	21273,9895	4,2171998
3	0	21276,4895	4,21693277
3	0	21278,9895	4,21721888
3	0	21281,4895	4,2172575
3	0	21283,9895	4,2172575
3	0	21286,4895	4,21697092
3	0	21288,9895	4,21662712
3	0	21291,4895	4,21677971
3	0	21293,9895	4,21677971
3	0	21296,4413	4,2158823
3	0	21297,9165	4,21214008
3	0	21300,4165	4,21212053
3	0	21302,9165	4,21152878
3	0	21305,4165	4,211586
3	0	21307,9165	4,21118498
3	0	21308,3115	4,21152878