File: Experimentelles/Rohdaten/Batterietests/AlteZelle/Studenten_Batterietests/SemArbeitToph/ECLab-Export/Al_rein_02_Zyklieren_01_OCV_C01.mpt
EC-Lab ASCII FILE
Nb header lines : 46

Open Circuit Voltage

Run on channel : 1 (SN 6985)
Grouped channel(s) : 1
User :
CE vs. WE compliance from -10 V to 10 V
Electrode connection : standard
Ewe ctrl range : min = 0,00 V, max = 5,00 V
Acquisition started on : 03.16.2015 11:28:31
Saved on :
	File : Al_rein_02_Zyklieren_01_OCV_C01.mpr
	Directory : C:\Hupfer\Studenten Batterietests\SemArbeitToph\
	Host : 192.168.0.2
Device : VMP3 (SN 0324)
Address : 192.168.0.1
EC-Lab for windows v10.33 (software)
Internet server v10.33 (firmware)
Command interpretor v10.32 (firmware)
Electrode material :
Initial state :
Electrolyte :
Comments :
Mass of active material : 0,001 mg
 at x = 0,000
Molecular weight of active material (at x = 0) : 0,001 g/mol
Atomic weight of intercalated ion : 0,001 g/mol
Acquisition started at : xo = 0,000
Number of e- transfered per intercalated ion : 1
for DX = 1, DQ = 26,801 mA.h
Battery capacity : 0,000 A.h
Electrode surface area : 0,001 cm²
Characteristic mass : 0,001 g
tR (h:m:s)          0:10:0,0000
dER/dt (mV/h)       1,0
dER (mV)            1,00
dtR (s)             0,5000
E range min (V)     0,000
E range max (V)     5,000

Number of loops : 1
Loop 0 from point number 0 to 1200

mode	error	time/s	Ewe/V
3	0	0,0000	3,48486495
3	0	2,5000	3,48478842
3	0	5,0000	3,48484564
3	0	7,5000	3,48486495
3	0	10,0000	3,48486495
3	0	12,5000	3,48484564
3	0	15,0000	3,48471212
3	0	17,5000	3,48484564
3	0	20,0000	3,48486495
3	0	22,5000	3,48494124
3	0	25,0000	3,48463559
3	0	27,5000	3,48471212
3	0	30,0000	3,48480749
3	0	32,5000	3,48471212
3	0	35,0000	3,48497939
3	0	37,5000	3,48478842
3	0	40,0000	3,48492217
3	0	42,5000	3,4847312
3	0	45,0000	3,48471212
3	0	47,5000	3,48482656
3	0	50,0000	3,48478842
3	0	52,5000	3,48476934
3	0	55,0000	3,48475027
3	0	57,5000	3,48469305
3	0	60,0000	3,48484564
3	0	62,5000	3,48476934
3	0	65,0000	3,48471212
3	0	67,5000	3,48475027
3	0	70,0000	3,4846549
3	0	72,5000	3,4847312
3	0	75,0000	3,48461652
3	0	77,5000	3,48469305
3	0	80,0000	3,4846549
3	0	82,5000	3,48467398
3	0	85,0000	3,4846549
3	0	87,5000	3,48452115
3	0	90,0000	3,48446393
3	0	92,5000	3,48454022
3	0	95,0000	3,48459744
3	0	97,5000	3,48461652
3	0	100,0000	3,48459744
3	0	102,5000	3,48457837
3	0	105,0000	3,4845593
3	0	107,5000	3,48461652
3	0	110,0000	3,48461652
3	0	112,5000	3,48446393
3	0	115,0000	3,48457837
3	0	117,5000	3,48454022
3	0	120,0000	3,48446393
3	0	122,5000	3,48446393
3	0	125,0000	3,48446393
3	0	127,5000	3,48442554
3	0	130,0000	3,48444486
3	0	132,5000	3,48446393
3	0	135,0000	3,48440647
3	0	137,5000	3,48436832
3	0	140,0000	3,48446393
3	0	142,5000	3,4843111
3	0	145,0000	3,48429203
3	0	147,5000	3,48434925
3	0	150,0000	3,4843111
3	0	152,5000	3,484483
3	0	155,0000	3,4843874
3	0	157,5000	3,48427296
3	0	160,0000	3,4842155
3	0	162,5000	3,48427296
3	0	165,0000	3,48429203
3	0	167,5000	3,48415828
3	0	170,0000	3,48419642
3	0	172,5000	3,48434925
3	0	175,0000	3,48433018
3	0	177,5000	3,48423481
3	0	180,0000	3,48419642
3	0	182,5000	3,48434925
3	0	185,0000	3,48417735
3	0	187,5000	3,48429203
3	0	190,0000	3,48419642
3	0	192,5000	3,4843111
3	0	195,0000	3,48425388
3	0	197,5000	3,48434925
3	0	200,0000	3,48425388
3	0	202,5000	3,48417735
3	0	205,0000	3,48419642
3	0	207,5000	3,4842155
3	0	210,0000	3,48417735
3	0	212,5000	3,48423481
3	0	215,0000	3,48410106
3	0	217,5000	3,48410106
3	0	220,0000	3,48406291
3	0	222,5000	3,48419642
3	0	225,0000	3,48404384
3	0	227,5000	3,4841392
3	0	230,0000	3,48415828
3	0	232,5000	3,48404384
3	0	235,0000	3,48415828
3	0	237,5000	3,48410106
3	0	240,0000	3,48400545
3	0	242,5000	3,48406291
3	0	245,0000	3,48406291
3	0	247,5000	3,48410106
3	0	250,0000	3,48402476
3	0	252,5000	3,48394823
3	0	255,0000	3,48400545
3	0	257,5000	3,48394823
3	0	260,0000	3,48400545
3	0	262,5000	3,48417735
3	0	265,0000	3,4839673
3	0	267,5000	3,48402476
3	0	270,0000	3,48394823
3	0	272,5000	3,48410106
3	0	275,0000	3,48392916
3	0	277,5000	3,48383379
3	0	280,0000	3,4837954
3	0	282,5000	3,48385286
3	0	285,0000	3,48385286
3	0	287,5000	3,48400545
3	0	290,0000	3,48377633
3	0	292,5000	3,48375726
3	0	295,0000	3,4837954
3	0	297,5000	3,48385286
3	0	300,0000	3,48389101
3	0	302,5000	3,4837954
3	0	305,0000	3,48391008
3	0	307,5000	3,48385286
3	0	310,0000	3,48383379
3	0	312,5000	3,48385286
3	0	315,0000	3,48394823
3	0	317,5000	3,48370004
3	0	320,0000	3,48387194
3	0	322,5000	3,48385286
3	0	325,0000	3,48389101
3	0	327,5000	3,48370004
3	0	330,0000	3,48385286
3	0	332,5000	3,48398638
3	0	335,0000	3,48392916
3	0	337,5000	3,48371911
3	0	340,0000	3,48391008
3	0	342,5000	3,48383379
3	0	345,0000	3,48385286
3	0	347,5000	3,48381472
3	0	350,0000	3,48381472
3	0	352,5000	3,48377633
3	0	355,0000	3,48383379
3	0	357,5000	3,48373818
3	0	360,0000	3,48383379
3	0	362,5000	3,48366189
3	0	365,0000	3,48373818
3	0	367,5000	3,48383379
3	0	370,0000	3,48383379
3	0	372,5000	3,48370004
3	0	375,0000	3,48373818
3	0	377,5000	3,48364282
3	0	380,0000	3,48370004
3	0	382,5000	3,48371911
3	0	385,0000	3,48377633
3	0	387,5000	3,4835856
3	0	390,0000	3,48385286
3	0	392,5000	3,48366189
3	0	395,0000	3,48371911
3	0	397,5000	3,48373818
3	0	400,0000	3,48364282
3	0	402,5000	3,48387194
3	0	405,0000	3,48370004
3	0	407,5000	3,48370004
3	0	410,0000	3,48362374
3	0	412,5000	3,48348999
3	0	415,0000	3,4835856
3	0	417,5000	3,48354721
3	0	420,0000	3,48354721
3	0	422,5000	3,48366189
3	0	425,0000	3,48371911
3	0	427,5000	3,48352814
3	0	430,0000	3,48354721
3	0	432,5000	3,48352814
3	0	435,0000	3,48354721
3	0	437,5000	3,48347092
3	0	440,0000	3,48360467
3	0	442,5000	3,48354721
3	0	445,0000	3,48352814
3	0	447,5000	3,48348999
3	0	450,0000	3,48354721
3	0	452,5000	3,48347092
3	0	455,0000	3,48356628
3	0	457,5000	3,48335624
3	0	460,0000	3,48352814
3	0	462,5000	3,48348999
3	0	465,0000	3,48352814
3	0	467,5000	3,48352814
3	0	470,0000	3,48352814
3	0	472,5000	3,48345184
3	0	475,0000	3,48352814
3	0	477,5000	3,48333716
3	0	480,0000	3,48335624
3	0	482,5000	3,48322272
3	0	485,0000	3,48352814
3	0	487,5000	3,48335624
3	0	490,0000	3,48350906
3	0	492,5000	3,48327994
3	0	495,0000	3,48343277
3	0	497,5000	3,48362374
3	0	500,0000	3,48333716
3	0	502,5000	3,48343277
3	0	505,0000	3,4834137
3	0	507,5000	3,48352814
3	0	510,0000	3,48343277
3	0	512,5000	3,48339462
3	0	515,0000	3,48352814
3	0	517,5000	3,48347092
3	0	520,0000	3,48329902
3	0	522,5000	3,48335624
3	0	525,0000	3,48320365
3	0	527,5000	3,48333716
3	0	530,0000	3,48329902
3	0	532,5000	3,48322272
3	0	535,0000	3,48329902
3	0	537,5000	3,4831655
3	0	540,0000	3,48314619
3	0	542,5000	3,48312712
3	0	545,0000	3,48320365
3	0	547,5000	3,48318458
3	0	550,0000	3,4831655
3	0	552,5000	3,48326087
3	0	555,0000	3,48333716
3	0	557,5000	3,48326087
3	0	560,0000	3,48335624
3	0	562,5000	3,48312712
3	0	565,0000	3,4832418
3	0	567,5000	3,48320365
3	0	570,0000	3,48326087
3	0	572,5000	3,48308897
3	0	575,0000	3,48327994
3	0	577,5000	3,48333716
3	0	580,0000	3,48314619
3	0	582,5000	3,4830699
3	0	585,0000	3,48318458
3	0	587,5000	3,48312712
3	0	590,0000	3,48312712
3	0	592,5000	3,48305082
3	0	595,0000	3,4831655
3	0	597,5000	3,48314619
3	0	600,0000	3,48310804