File: Experimentelles/Rohdaten/Batterietests/AlteZelle/Studenten_Batterietests/SemArbeitToph/ECLab-Export/Al_rein_02_01_GCPL_C01.mpt
EC-Lab ASCII FILE
Nb header lines : 68

Galvanostatic Cycling with Potential Limitation

Run on channel : 1 (SN 6985)
Grouped channel(s) : 1
User :
CE vs. WE compliance from -10 V to 10 V
Electrode connection : standard
Ewe ctrl range : min = -10,00 V, max = 10,00 V
Acquisition started on : 03.13.2015 16:19:02
Saved on :
	File : Al_rein_02_01_GCPL_C01.mpr
	Directory : C:\Hupfer\Studenten Batterietests\SemArbeitToph\
	Host : 192.168.0.2
Device : VMP3 (SN 0324)
Address : 192.168.0.1
EC-Lab for windows v10.33 (software)
Internet server v10.33 (firmware)
Command interpretor v10.32 (firmware)
Electrode material :
Initial state :
Electrolyte :
Comments :
Mass of active material : 0,001 mg
 at x = 0,000
Molecular weight of active material (at x = 0) : 0,001 g/mol
Atomic weight of intercalated ion : 0,001 g/mol
Acquisition started at : xo = 0,000
Number of e- transfered per intercalated ion : 1
for DX = 1, DQ = 26,801 mA.h
Battery capacity : 0,000 A.h
Electrode surface area : 0,001 cm²
Characteristic mass : 0,001 g
Ns                  0                   1
Set I/C             I                   I
Is                  0,000               100,000
unit Is             mA                  µA
vs.                 <None>              <None>
N                   1                   1
I sign              > 0                 > 0
t1 (h:m:s)          0:00:0,0000         10:00:0,0000
I Range             1 A                 1 A
Bandwidth           5                   5
dE1 (mV)            0,00                10,00
dt1 (s)             0,0000              10,0000
EM (V)              0,000               4,200
tM (h:m:s)          0:00:0,0000         0:10:0,0000
Im                  0,000               0,000
unit Im             mA                  mA
E range min (V)     -10,000             -10,000
E range max (V)     10,000              10,000
dq                  0,000               1,000
unit dq             mA.h                mA.h
dtq (s)             0,0000              120,0000
dQM                 0,000               0,000
unit dQM            mA.h                mA.h
dxM                 0,000               0,000
tR (h:m:s)          0:00:0,0000         0:15:0,0000
dER/dt (mV/h)       0,0                 0,1
dER (mV)            0,00                5,00
dtR (s)             1,0000              120,0000
EL (V)              pass                4,200
goto Ns'            0                   0
nc cycles           0                   0

mode	ox/red	error	control changes	Ns changes	counter inc.	Ns	time/s	control/V/mA	Ewe/V	dq/mA.h	<I>/mA	P/W	(Q-Qo)/mA.h	x	Capacity/mA.h
1	1	1	0	1	0	1	0,0004	0,100000001	3,00610542	0	0	0	0	0	0
1	1	0	0	0	0	1	6,0972	0,100000001	3,26010585	3,1271534318725267E-005	0,34385316552033747	0,00112099771	0,00057458845440960595	-2,1438667776415725E-005	0,00057458845440960595
1	1	0	0	0	0	1	16,3504	0,100000001	3,51215863	4,6681848555803296E-005	0,34395141024623341	0,00120801188	0,0015493396832206186	-5,7807946690320269E-005	0,0015493396832206186
1	1	0	0	0	0	1	31,1908	0,100000001	3,76445961	7,1420519620180122E-005	0,34236202014366349	0,00128880795	0,0029582544812692525	-0,00011037645211160768	0,0029582544812692525
1	1	0	0	0	0	1	177,5728	0,100000001	3,88681984	0,00095937198658121946	0,34537392389411821	0,00134240626	0,016962300738987824	-0,00063288624662753306	0,016962300738987824
1	1	0	0	0	0	1	427,5728	0,100000001	3,88983679	0,00096377700926694618	0,34695973210104064	0,00134961668	0,04105438934236103	-0,0015317944645770214	0,04105438934236103
1	1	0	0	0	0	1	677,5728	0,100000001	3,89333129	0,00099173803361588058	0,35702570112094477	0,00139001932	0,065472098321283853	-0,0024428520165395168	0,065472098321283853
1	1	0	0	0	0	1	927,5728	0,100000001	3,89623356	0,0009934099278888768	0,35762758307442835	0,0013934006	0,090384686197523418	-0,0033723741655326547	0,090384686197523418
1	1	0	0	0	0	1	1177,5728	0,100000001	3,89791393	0,0009788862532095776	0,35239906005779706	0,00137362117	0,11503900936621842	-0,004292260111046711	0,11503900936621842
1	1	0	0	0	0	1	1427,5728	0,100000001	3,90009069	0,00098705029802189926	0,35533811626447962	0,00138585083	0,13971025220317893	-0,0052127773521324909	0,13971025220317893
1	1	0	0	0	0	1	1677,5728	0,100000001	3,90085459	0,00098211518892480269	0,35356147694464314	0,00137919188	0,16433296063421338	-0,0061314837092779648	0,16433296063421338
1	1	0	0	0	0	1	1927,5728	0,100000001	3,90200019	0,00098183247611009408	0,35345970032877696	0,00137919979	0,18886196136124595	-0,0070466937059957837	0,18886196136124595
1	1	0	0	0	0	1	2177,5727	0,100000001	3,90348959	0,00097101375569403174	0,34956496088060512	0,0013645232	0,21331519923868851	-0,0079590768889311616	0,21331519923868851
1	1	0	0	0	0	1	2427,5727	0,100000001	3,90553284	0,0009773907012335127	0,35186066133281254	0,00137420336	0,23775846193972138	-0,0088710878846229286	0,23775846193972138
1	1	0	0	0	0	1	2677,5727	0,100000001	3,90541816	0,00098045919786310861	0,35296532014737306	0,0013784772	0,26225873513445334	-0,0097852260184860326	0,26225873513445334
1	1	0	0	0	0	1	2927,5727	0,100000001	3,9060483	0,00097433881393737267	0,3507619818784471	0,0013700932	0,28677130917258554	-0,010699823113355056	0,28677130917258554
1	1	0	0	0	0	1	3177,5727	0,100000001	3,90782428	0,00097037129031121728	0,34933367333694912	0,00136513461	0,31110337872312717	-0,011607685343101214	0,31110337872312717
1	1	0	0	0	0	1	3427,5727	0,100000001	3,91005826	0,00098406166882564621	0,35426220972664877	0,00138518587	0,33547153729895661	-0,012516894102903074	0,33547153729895661
1	1	0	0	0	0	1	3677,5727	0,100000001	3,91194868	0,00097157988838934246	0,34976876865606554	0,00136827747	0,35982082336569734	-0,01342539870401647	0,35982082336569734
1	1	0	0	0	0	1	3927,5727	0,100000001	3,91261697	0,00097095898003710643	0,34954524164361382	0,00136763661	0,38404430037022061	-0,01432920919986645	0,38404430037022061
1	1	0	0	0	0	1	4177,5727	0,100000001	3,91519475	0,00096773075073791872	0,348383074483592	0,00136398757	0,40829152739210125	-0,015233905840796272	0,40829152739210125
1	1	0	0	0	0	1	4427,5727	0,100000001	3,91868925	0,00097278707306914867	0,35020335054487322	0,00137233816	0,43266509073306726	-0,01614331625965216	0,43266509073306726
1	1	0	0	0	0	1	4677,5727	0,100000001	3,92023587	0,00096553124328371546	0,3475912517904921	0,00136263971	0,45698838133685734	-0,017050850935091594	0,45698838133685734
1	1	0	0	0	0	1	4927,5727	0,100000001	3,92250824	0,00096237581269360256	0,34645529676429818	0,00135897379	0,48113477769696666	-0,017951785448462464	0,48113477769696666
1	1	0	0	0	0	1	5177,5727	0,100000001	3,92386389	0,00096190014791240294	0,34628405744099309	0,00135877146	0,5052427777418985	-0,018851287343689664	0,5052427777418985
1	1	0	0	0	0	1	5427,5727	0,100000001	3,92691922	0,00097178485557188582	0,34984255224149043	0,00137380348	0,52954344741728346	-0,019757978001876144	0,52954344741728346
1	1	0	0	0	0	1	5677,5727	0,100000001	3,93062353	0,00097448476449648538	0,35081451946611405	0,00137891981	0,55394133927216838	-0,020668296150296381	0,55394133927216838
1	1	0	0	0	0	1	5927,5727	0,100000001	3,93409872	0,00097689842708326042	0,35168343800787315	0,00138355733	0,57830092103958298	-0,021577184897844637	0,57830092103958298
1	1	0	0	0	0	1	6177,5727	0,100000001	3,93677211	0,00098113099464691366	0,35320716234923635	0,00139049615	0,60279065752127949	-0,022490929892777626	0,60279065752127949
1	1	0	0	0	0	1	6427,5727	0,100000001	3,940171	0,00098320116048389005	0,35395242205957082	0,00139463309	0,62729855902034624	-0,023405352648931827	0,62729855902034624
1	1	0	0	0	0	1	6677,5727	0,100000001	3,94431448	0,0009814006317812535	0,35330423171877395	0,00139354297	0,65176246719425075	-0,024318133954974566	0,65176246719425075
1	1	0	0	0	0	1	6927,5727	0,100000001	3,94962287	0,00098443202269491226	0,35439553246090374	0,0013997287	0,67635767118449523	-0,025235814084454054	0,67635767118449523
1	1	0	0	0	0	1	7177,5727	0,100000001	3,95437765	0,00098015704800685261	0,35285654155456934	0,00139532797	0,70087418589105984	-0,026150558210960579	0,70087418589105984
1	1	0	0	0	0	1	7427,5727	0,100000001	3,95903683	0,00097960363710754458	0,3526573136284064	0,00139618327	0,72532876559592397	-0,027062991459281165	0,72532876559592397
1	1	0	0	0	0	1	7677,5727	0,100000001	3,9648416	0,00098328915489878912	0,35398410004931808	0,0014034909	0,74979872418102976	-0,027975998514300688	0,74979872418102976
1	1	0	0	0	0	1	7927,5727	0,100000001	3,9483819	0,00098144374570664422	0,35331975273210253	0,00139504136	0,77438048587278374	-0,028893177093550131	0,77438048587278374
1	1	0	0	0	0	1	8177,5726	0,100000001	3,94213772	0,00098541480358607245	0,35474933358600493	0,00139847072	0,7989887632183808	-0,029811345007495136	0,7989887632183808
1	1	0	0	0	0	1	8427,5726	0,100000001	3,94958472	0,00098941236577928064	0,35618845599298355	0,00140679651	0,82367986841121254	-0,030732603339783693	0,82367986841121254
1	1	0	0	0	0	1	8677,5726	0,100000001	3,95504594	0,00097202551484604672	0,34992918958123718	0,00138398597	0,84819584808152102	-0,031647327503368141	0,84819584808152102
1	1	0	0	0	0	1	8927,5726	0,100000001	3,96182466	0,00098455040850407539	0,35443815135271846	0,00140422175	0,87277178765212109	-0,032564288851449402	0,87277178765212109
1	1	0	0	0	0	1	9177,5726	0,100000001	3,97469449	0,00098038463209652237	0,35293847182784243	0,00140282256	0,89743549547986534	-0,033484524951210394	0,89743549547986534
1	1	0	0	0	0	1	9422,8406	0,100000001	3,98756456	0,00098853736894246605	0,35587345712791654	0,00141906843	0,92165219293925286	-0,034388082493116166	0,92165219293925286
1	1	0	0	0	0	1	9672,8406	0,100000001	3,99907875	0,00097446391467418931	0,35080701352999654	0,00140290486	0,94626200046971891	-0,035306307500315994	0,94626200046971891
1	1	0	0	0	0	1	9922,8406	0,100000001	4,00751877	0,00097677191320475597	0,35163789301106016	0,00140919548	0,97065009313994125	-0,036216260027981318	0,97065009313994125
1	1	0	0	0	0	1	10172,8406	0,100000001	4,02143908	0,00096877714238978099	0,34875977548282323	0,00140251615	0,99507389034324774	-0,037127544739781274	0,99507389034324774
1	1	0	0	0	0	1	10422,8406	0,100000001	4,0404768	0,00097224461728334438	0,35000806645961933	0,00141419948	1,019405377858889	-0,038035385253022746	1,019405377858889
1	1	0	0	0	0	1	10672,8406	0,100000001	4,04038095	0,00096820641557872307	0,34855431382835475	0,00140829221	1,0436707306701141	-0,038940758191523392	1,0436707306701141
1	1	0	0	0	0	1	10922,8406	0,100000001	4,02411222	0,00096394380938261747	0,34701977557917786	0,00139644649	1,067960418355669	-0,039847039096903872	1,067960418355669
1	1	0	0	0	0	1	11172,8406	0,100000001	4,04116392	0,00096306386546707827	0,34670299576574835	0,00140108366	1,0920880029925843	-0,040747271719589741	1,0920880029925843
1	1	0	0	0	0	1	11422,8406	0,100000001	4,06235933	0,00097380802049239475	0,35057089162169178	0,00142414495	1,1163284215739539	-0,041651714328450054	1,1163284215739539
1	1	0	0	0	0	1	11672,8406	0,100000001	4,07360649	0,00097321008238775859	0,35035563390141658	0,00142721098	1,1406123291947174	-0,042557779571841786	1,1406123291947174
1	1	0	0	0	0	1	11922,8406	0,100000001	4,09146023	0,00096537115711470451	0,3475336207689504	0,00142192002	1,1647992595352122	-0,043460226462519347	1,1647992595352122
1	1	0	0	0	0	1	12172,8406	0,100000001	4,10996294	0,00096900472610278259	0,34884170562049574	0,00143372652	1,1890210169381494	-0,044363972797722125	1,1890210169381494
1	1	0	0	0	0	1	12422,8406	0,100000001	4,12957335	0,00096763674833046067	0,34834923361649741	0,00143853365	1,2132084738294091	-0,045266439334716691	1,2132084738294091
1	1	0	0	0	0	1	12672,8406	0,100000001	4,15726089	0,00096860504049973363	0,34869781880165606	0,0014496278	1,2374837986339046	-0,046172184341693741	1,2374837986339046
1	1	0	0	0	0	1	12921,5944	0,100000001	4,172575	0,00096711584991051085	0,34816171018304512	0,00145273085	1,2615753608040106	-0,047071072917710234	1,2615753608040106
1	1	0	0	0	0	1	13171,5944	0,100000001	4,19644403	0,00097473708599060774	0,35090535520509779	0,00147255464	1,2859164626822357	-0,047979272155746355	1,2859164626822357
3	1	0	0	0	0	1	14708,3086	0,100000001	4,20255375	0	0	0	1,3344228011679496	-0,049789108862114054	1,3344228011679496
2	1	0	1	0	0	1	16688,3097	4,19996309	4,1995182	0,0064036045953167808	0,19210814018539386	0,000806761615	1,3993954757533278	-0,052213326707584576	1,3993954757533278
3	1	0	0	0	0	1	18717,7419	0	4,19791412	0	0	0	1,4400242560386701	-0,053729241126006765	1,4400242560386701
3	1	0	0	0	0	1	20708,3109	0	4,20219135	0	0	0	1,4685586023981488	-0,054793895953515622	1,4685586023981488