File: Experimentelles/Rohdaten/Batterietests/AlteZelle/Studenten_Batterietests/SemArbeitToph/ECLab-Export/Al_Struktur_01_03_PEIS_C03.mpt
EC-Lab ASCII FILE
Nb header lines : 65

Potentio Electrochemical Impedance Spectroscopy

Run on channel : 3 (SN 6987)
Grouped channel(s) : 3
User :
CE vs. WE compliance from -10 V to 10 V
Electrode connection : standard
Ewe ctrl range : min = -10,00 V, max = 10,00 V
Acquisition started on : 03.11.2015 16:50:59
Saved on :
	File : Al_Struktur_01_03_PEIS_C03.mpr
	Directory : C:\Hupfer\Studenten Batterietests\SemArbeitToph\
	Host : 192.168.0.2
Device : VMP3 (SN 0324)
Address : 192.168.0.1
EC-Lab for windows v10.33 (software)
Internet server v10.33 (firmware)
Command interpretor v10.32 (firmware)
Electrode material :
Initial state :
Electrolyte :
Comments :
Mass of active material : 0,001 mg
 at x = 0,000
Molecular weight of active material (at x = 0) : 0,001 g/mol
Atomic weight of intercalated ion : 0,001 g/mol
Acquisition started at : xo = 0,000
Number of e- transfered per intercalated ion : 1
for DX = 1, DQ = 26,801 mA.h
Battery capacity : 0,000 A.h
Electrode surface area : 0,001 cm²
Characteristic mass : 0,001 g
Multi Sine          0
E (V)               0,0000
vs.                 Eoc
tE (h:m:s)          0:00:0,0000
record              0
dI                  0,000
unit dI             mA
dt (s)              0,000
fi                  1,000
unit fi             MHz
ff                  500,000
unit ff             mHz
Sel Nd              1
Nd                  6
Nt                  51
Log                 1
Va (mV)             10,0
pw                  0,10
Na                  2
E range min (V)     -10,000
E range max (V)     10,000
I Range             Auto
Bandwidth           5
corr                0
nc cycles           0
goto Ns'            0
nr cycles           0
inc. cycle          0

freq/Hz	Re(Z)/Ohm	-Im(Z)/Ohm	|Z|/Ohm	Phase(Z)/deg	time/s	<Ewe>/V	<I>/mA	Cs/µF	Cp/µF	cycle number	I Range	|Ewe|/V	|I|/A	Re(Y)/Ohm-1	Im(Y)/Ohm-1	|Y|/Ohm-1	Phase(Y)/deg
1000024,25	20,8583813	-3,37866306	21,130249	9,20091724	22353,3657	4,20268631	0,00945970695	-0,0471047536	-0,00120432931	1	10	0,000601351901	2,84592898E-005	0,0467166156	-0,00756720779	0,047325518	-9,20091724
675622,438	18,1501007	-2,10833049	18,2721424	6,6258297	22354,5977	4,20312691	0,0118596321	-0,111731954	-0,00148756453	1	10	0,00234315055	0,000128236221	0,0543625839	-0,00631480245	0,0547281206	-6,6258297
456457,438	17,9473095	-0,839894652	17,9669514	2,67936182	22355,8297	4,20330143	0,012721152	-0,41514042	-0,000907185022	1	10	0,00758495182	0,000422161305	0,0555968992	-0,00260181283	0,0556577444	-2,67936182
308398,406	17,9540672	0,0115134325	17,954071	-0,0367421471	22356,1437	4,20328999	0,0135136675	44,8232346	1,84326145E-005	1	10	0,0108134709	0,000602285203	0,0556976646	3,57173267E-005	0,0556976758	0,0367421471
208361,797	18,1465092	0,692292035	18,1597099	-2,18478298	22356,5597	4,20331955	0,013058668	1,10334849	0,00160351698	1	10	0,0101172933	0,000557128573	0,0550269298	0,0020992856	0,0550669581	2,18478298
140771,469	18,4432926	1,29339528	18,4885883	-4,01148367	22356,9757	4,20333862	0,0138605069	0,874126375	0,00427788636	1	10	0,0101424539	0,000548579148	0,0539549068	0,00378376176	0,0540874191	4,01148367
95104,9688	18,8418217	1,88666916	18,9360447	-5,71808052	22357,2897	4,20335484	0,0137859173	0,886995018	0,00880509708	1	10	0,0108699277	0,000574033707	0,0525465682	0,00526159257	0,052809339	5,71808052
64257,8047	19,3437195	2,46817088	19,5005474	-7,27139044	22357,6037	4,2033515	0,0130996928	1,0035038	0,0160759222	1	10	0,0105372053	0,000540354347	0,0508681983	0,0064905514	0,0512806103	7,27139044
43408,1992	19,9347878	3,07968283	20,1712723	-8,78207588	22357,9177	4,20335531	0,013860506	1,19053566	0,0277515855	1	10	0,010385748	0,000514878193	0,0489942431	0,00756901596	0,0495754555	8,78207588
29333,4883	20,7045403	3,73577118	21,038868	-10,227973	22358,2317	4,20335627	0,0137038687	1,45236623	0,0457922444	1	10	0,0101819774	0,000483960321	0,046775762	0,00843986589	0,0475310758	10,227973
19812,0098	21,5956535	4,50552654	22,0606441	-11,7846432	22358,4437	4,20335913	0,0138250766	1,7829783	0,0743705109	1	10	0,0109900162	0,000498172943	0,0443741418	0,00925782975	0,0453295931	11,7846432
13391,1094	22,7223949	5,39657736	23,3544483	-13,360239	22358,7577	4,20335865	0,0142241316	2,20234418	0,117593348	1	10	0,0101622231	0,000435130089	0,041659575	0,00989416521	0,0428183936	13,360239
9040,93652	24,1605396	6,34691	24,9802914	-14,7188816	22359,0329	4,20341301	0,0156152267	2,77360368	0,179049894	1	10	0,0102851596	0,000411730958	0,0387178883	0,0101710865	0,0400315598	14,7188816
6110,23389	25,9576092	7,31378555	26,9682941	-15,735651	22359,4182	4,20339394	0,0130325584	3,56139445	0,261937439	1	10	0,00952870678	0,00035332999	0,0356909186	0,0100562321	0,0370805822	15,735651
4131,0332	28,1652527	8,15629578	29,3224602	-16,1503372	22359,8710	4,20340633	0,0133868596	4,72354984	0,365471572	1	10	0,00979841873	0,000334160868	0,0327576585	0,00948619749	0,03410355	16,1503372
2787,32349	30,7052155	8,66507721	31,9044476	-15,7591791	22360,3220	4,20340919	0,0131276594	6,58961964	0,486074388	1	10	0,0100610042	0,000315348007	0,0301654432	0,00851275213	0,0313435942	15,7591791
1883,19141	33,3524475	8,78978252	34,4912453	-14,7641621	22360,7730	4,20340681	0,0131369829	9,61496162	0,624433279	1	10	0,0101793017	0,000295127131	0,0280356072	0,00738856988	0,0289928652	14,7641621
1273,77686	36,0834999	8,5140295	37,0743523	-13,2763147	22361,4690	4,20339203	7,15185161E-005	14,675458	0,773953378	1	11	0,0103305811	0,000278644962	0,0262519456	0,00619423948	0,0269728247	13,2763147
859,17511	38,3892021	7,9094224	39,1955338	-11,6418848	22361,9200	4,20339251	1,20235936E-005	23,4203663	0,953696191	1	11	0,0103088561	0,000263010996	0,0249882545	0,00514839171	0,0255131107	11,6418848
580,929382	40,37854	7,21962261	41,0188904	-10,1372795	22362,3705	4,20339632	8,08431796E-005	37,947422	1,17555642	1	11	0,0102970339	0,00025103151	0,0239984281	0,00429088296	0,0243790112	10,1372795
392,612793	42,0288239	6,49360514	42,5275078	-8,78295708	22362,8240	4,2033968	8,11236459E-005	62,4266167	1,45546484	1	11	0,0102836378	0,000241811431	0,0232384615	0,00359042617	0,0235141926	8,78295708
265,424622	43,3863716	5,86578465	43,7811012	-7,69963312	22363,2745	4,20339584	5,65981973E-005	102,223984	1,83498144	1	11	0,010276028	0,000234713792	0,0226349737	0,00306022097	0,0228409059	7,69963312
179,368607	44,5124626	5,3886323	44,8374481	-6,90257788	22363,7275	4,20339775	6,98400472E-005	164,662659	2,37832093	1	11	0,0102746347	0,000229152967	0,0221411344	0,00268038246	0,0223027859	6,90257788
121,124016	45,4304123	5,22587919	45,7299919	-6,56191635	22364,1750	4,2033968	1,1557202E-005	251,437759	3,28357553	1	11	0,0102707613	0,000224595744	0,0217242315	0,00249894755	0,0218674876	6,56191635
81,8062515	46,2426033	5,36408186	46,5526772	-6,61666489	22364,6164	4,20339346	-5,41473219E-006	362,69223	4,81548119	1	11	0,0102702957	0,000220616654	0,0213379618	0,00247517601	0,0214810409	6,61666489
55,2297401	47,014061	5,93414736	47,3870888	-7,19387007	22365,0660	4,20339203	4,11180845E-005	485,611359	7,61527205	1	11	0,0102630965	0,000216580025	0,0209366772	0,00264264154	0,0211027954	7,19387007
37,3548431	47,8915405	6,99424219	48,3995781	-8,30892849	22365,4902	4,20339203	-5,60140779E-006	609,161621	12,7212782	1	11	0,0102655515	0,000212100029	0,0204444602	0,00298577803	0,0206613373	8,30892849
25,2341652	48,9579697	8,59384441	49,7065086	-9,95599365	22365,9380	4,20339537	0,000125231512	733,911499	21,9377537	1	11	0,010266073	0,000206533776	0,0198151283	0,0034782514	0,0201180894	9,95599365
17,0330601	50,2809525	10,9540758	51,4603348	-12,2902689	22366,3389	4,20338964	-0,000389520719	853,005249	38,650753	1	11	0,0102669094	0,000199511123	0,0189870838	0,0041364762	0,0194324423	12,2902689
11,5228605	52,1197052	14,0468979	53,9794312	-15,0835238	22366,7343	4,20338488	-0,000320047955	983,285034	66,586113	1	11	0,0102667762	0,000190197927	0,0178873222	0,00482085207	0,0185255744	15,0835238
7,77362823	54,3165398	18,3642216	57,3369942	-18,6802063	22367,3071	4,2033906	2,46779309E-005	1114,86902	114,366554	1	11	0,010270006	0,000179116571	0,0165219866	0,00558602298	0,0174407475	18,6802063
5,25033522	57,5730133	23,8343105	62,3115273	-22,4887753	22367,7393	4,20338058	-0,000282841269	1271,83411	186,079651	1	11	0,0102639701	0,000164720244	0,0148279853	0,00613854965	0,0160483941	22,4887753
3,54791069	60,8470802	31,0941353	68,3316345	-27,0679874	22368,3617	4,20339346	1,61588359E-005	1442,67651	298,732391	1	11	0,0102654947	0,00015023048	0,0130315516	0,00665939692	0,0146345105	27,0679874
2,39647198	65,8618546	41,4791756	77,8351212	-32,2023392	22369,7293	4,20340776	-0,00105982006	1601,09705	454,701782	1	12	0,010270399	0,000131950699	0,0108713312	0,00684666261	0,0128476704	32,2023392
1,62219644	73,0602798	54,8481522	91,3571243	-36,8964615	22371,0525	4,20340776	-0,00105298008	1788,77075	644,753662	1	12	0,0102702379	0,000112418573	0,00875379704	0,00657169148	0,010946054	36,8964615
1,09602952	84,9086304	74,0467453	112,66053	-41,090889	22372,9965	4,20340586	-0,00100009935	1961,06458	847,149902	1	12	0,0102690868	9,11507086E-005	0,00668972451	0,0058339457	0,00887622312	41,090889
0,739819586	102,725197	98,2885971	142,172836	-43,7356224	22375,8631	4,20340776	-0,000962205522	2188,72485	1046,07825	1	12	0,010267172	7,22161276E-005	0,00508210622	0,00486261491	0,00703369221	43,7356224
0,499264985	132,632614	124,054001	181,606186	-43,0858536	22380,0979	4,2034111	-0,000877081475	2569,67529	1199,05347	1	12	0,010269329	5,65472437E-005	0,00402150955	0,0037614	0,00550642051	43,0858536