File: Experimentelles/Rohdaten/Batterietests/AlteZelle/Studenten_Batterietests/SemArbeitToph/ECLab-Export/Al_Struktur_01_Zyklieren_01_OCV_C03.mpt
EC-Lab ASCII FILE
Nb header lines : 46

Open Circuit Voltage

Run on channel : 3 (SN 6987)
Grouped channel(s) : 3
User :
CE vs. WE compliance from -10 V to 10 V
Electrode connection : standard
Ewe ctrl range : min = 0,00 V, max = 5,00 V
Acquisition started on : 03.16.2015 02:19:29
Saved on :
	File : Al_Struktur_01_Zyklieren_01_OCV_C03.mpr
	Directory : C:\Hupfer\Studenten Batterietests\SemArbeitToph\
	Host : 192.168.0.2
Device : VMP3 (SN 0324)
Address : 192.168.0.1
EC-Lab for windows v10.33 (software)
Internet server v10.33 (firmware)
Command interpretor v10.32 (firmware)
Electrode material :
Initial state :
Electrolyte :
Comments :
Mass of active material : 0,001 mg
 at x = 0,000
Molecular weight of active material (at x = 0) : 0,001 g/mol
Atomic weight of intercalated ion : 0,001 g/mol
Acquisition started at : xo = 0,000
Number of e- transfered per intercalated ion : 1
for DX = 1, DQ = 26,801 mA.h
Battery capacity : 0,000 A.h
Electrode surface area : 0,001 cm²
Characteristic mass : 0,001 g
tR (h:m:s)          0:10:0,0000
dER/dt (mV/h)       1,0
dER (mV)            1,00
dtR (s)             0,5000
E range min (V)     0,000
E range max (V)     5,000

Number of loops : 1
Loop 0 from point number 0 to 1202

mode	error	time/s	Ewe/V
3	0	0,0000	4,06582785
3	0	2,5000	4,06580877
3	0	5,0000	4,06586599
3	0	7,5000	4,06582785
3	0	10,0000	4,06565619
3	0	12,5000	4,06567526
3	0	15,0000	4,06559896
3	0	17,5000	4,06556082
3	0	20,0000	4,0654273
3	0	22,5000	4,06557989
3	0	25,0000	4,06561804
3	0	27,5000	4,0655036
3	0	30,0000	4,06557989
3	0	32,5000	4,06556082
3	0	35,0000	4,0655036
3	0	37,5000	4,06544638
3	0	40,0000	4,06538916
3	0	42,5000	4,06538916
3	0	45,0000	4,06538916
3	0	47,5000	4,06519842
3	0	50,0000	4,06538916
3	0	52,5000	4,06527472
3	0	55,0000	4,06525564
3	0	57,5000	4,06521749
3	0	60,0000	4,06516075
3	0	62,5000	4,0651226
3	0	65,0000	4,06510353
3	0	67,5000	4,06508446
3	0	70,0000	4,06508446
3	0	72,5000	4,06506538
3	0	75,0000	4,06500816
3	0	77,5000	4,06508446
3	0	80,0000	4,06504631
3	0	82,5000	4,06500816
3	0	84,8642	4,0660944
3	0	86,8644	4,06500816
3	0	89,3644	4,0649128
3	0	91,8644	4,0648365
3	0	94,3644	4,06489372
3	0	96,8644	4,06487465
3	0	99,3644	4,06485558
3	0	101,8644	4,06476021
3	0	104,3644	4,06477928
3	0	106,8644	4,0648365
3	0	109,3644	4,06468391
3	0	111,8644	4,06485558
3	0	114,3644	4,06477928
3	0	116,8644	4,06466484
3	0	119,3644	4,06462669
3	0	121,8644	4,06460762
3	0	124,3644	4,06468391
3	0	126,8644	4,06464577
3	0	129,3644	4,06449318
3	0	131,8644	4,06458855
3	0	134,3644	4,06456947
3	0	136,8644	4,06458855
3	0	139,3644	4,06460762
3	0	141,8644	4,06449318
3	0	144,3644	4,06449318
3	0	146,8644	4,06449318
3	0	149,3644	4,0645504
3	0	151,8644	4,06445503
3	0	154,3644	4,06430244
3	0	156,8644	4,06432152
3	0	159,3644	4,06443596
3	0	161,8644	4,06437874
3	0	164,3644	4,06422663
3	0	166,8644	4,06420755
3	0	169,3644	4,06447411
3	0	171,8644	4,06435966
3	0	174,3644	4,06411219
3	0	176,8644	4,06416941
3	0	179,3644	4,06416941
3	0	181,8644	4,06409311
3	0	184,3644	4,06416941
3	0	186,8644	4,06418848
3	0	189,3644	4,06401682
3	0	191,8644	4,06405497
3	0	194,3644	4,06405497
3	0	196,8644	4,0639596
3	0	199,3644	4,06399775
3	0	201,8644	4,06397867
3	0	204,3644	4,0638833
3	0	206,8644	4,06401682
3	0	209,3644	4,06382608
3	0	211,8644	4,06390238
3	0	214,3644	4,06376886
3	0	216,8644	4,0638833
3	0	219,3644	4,06384516
3	0	221,8644	4,06384516
3	0	224,3644	4,06369257
3	0	226,8644	4,06374979
3	0	229,3644	4,06392145
3	0	231,8644	4,06384516
3	0	234,3644	4,06363535
3	0	236,8644	4,06373072
3	0	239,3644	4,06369257
3	0	241,8644	4,06361628
3	0	244,3644	4,06353998
3	0	246,8644	4,06373072
3	0	249,3644	4,06365442
3	0	251,8644	4,06355906
3	0	254,3644	4,06352091
3	0	256,8644	4,06344461
3	0	259,3644	4,06346369
3	0	261,8644	4,06353998
3	0	264,3644	4,06346369
3	0	266,8644	4,06352091
3	0	269,3644	4,06348276
3	0	271,8644	4,06352091
3	0	274,3644	4,06331158
3	0	276,8644	4,06333017
3	0	279,3644	4,06348276
3	0	281,8644	4,06340647
3	0	284,3644	4,06342554
3	0	286,8644	4,06325436
3	0	289,3644	4,06327343
3	0	291,8644	4,06327343
3	0	294,3644	4,06323528
3	0	296,8644	4,06325436
3	0	299,3644	4,06327343
3	0	301,8644	4,06317806
3	0	304,3644	4,06319714
3	0	306,8644	4,06317806
3	0	309,3644	4,06298733
3	0	311,8644	4,06306362
3	0	314,3644	4,06298733
3	0	316,8644	4,06317806
3	0	319,3644	4,06312084
3	0	321,8644	4,06304455
3	0	324,3644	4,06310177
3	0	326,8644	4,06306362
3	0	329,3644	4,06289196
3	0	331,8644	4,06293011
3	0	334,3644	4,06291103
3	0	336,8644	4,06306362
3	0	339,3644	4,06298733
3	0	341,8644	4,06287289
3	0	344,3644	4,06289196
3	0	346,8644	4,06283474
3	0	349,3644	4,06279659
3	0	351,8644	4,06289196
3	0	354,3644	4,0627203
3	0	356,8644	4,06289196
3	0	359,3644	4,06279659
3	0	361,8644	4,06273937
3	0	364,3644	4,06277752
3	0	366,8644	4,06266308
3	0	369,3644	4,0627203
3	0	371,8644	4,062644
3	0	374,3644	4,0627203
3	0	376,8644	4,06268215
3	0	379,3644	4,06258678
3	0	381,8644	4,06260586
3	0	384,3644	4,06266308
3	0	386,8644	4,06260586
3	0	389,3644	4,06256771
3	0	391,8644	4,06256771
3	0	394,3644	4,0624342
3	0	396,8644	4,06241512
3	0	399,3644	4,06254864
3	0	401,8644	4,06251049
3	0	404,3644	4,06249142
3	0	406,8644	4,06247234
3	0	409,3644	4,06252956
3	0	411,8644	4,06249142
3	0	414,3644	4,06237745
3	0	416,8644	4,06233931
3	0	419,3644	4,06226301
3	0	421,8644	4,06241512
3	0	424,3644	4,06235838
3	0	426,8644	4,06228209
3	0	429,3644	4,06228209
3	0	431,8644	4,06230116
3	0	434,3644	4,06224394
3	0	436,8644	4,0621295
3	0	439,3644	4,06218672
3	0	441,8644	4,06222486
3	0	444,3644	4,06222486
3	0	446,8644	4,06224394
3	0	449,3644	4,06211042
3	0	451,8644	4,06209135
3	0	454,3644	4,06201506
3	0	456,8644	4,06209135
3	0	459,3644	4,06211042
3	0	461,8644	4,0620532
3	0	464,3644	4,06209135
3	0	466,8644	4,06207228
3	0	469,3644	4,06197691
3	0	471,8644	4,06190062
3	0	474,3644	4,06201506
3	0	476,8644	4,06195784
3	0	479,3644	4,06199598
3	0	481,8644	4,06195784
3	0	484,3644	4,06180525
3	0	486,8644	4,0618434
3	0	489,3644	4,06190062
3	0	491,8644	4,06186247
3	0	494,3644	4,06178617
3	0	496,8644	4,06180525
3	0	499,3644	4,06167173
3	0	501,8644	4,06165266
3	0	504,3644	4,06172895
3	0	506,8644	4,06174803
3	0	509,3644	4,06174803
3	0	511,8644	4,06167173
3	0	514,3644	4,06170988
3	0	516,8644	4,06159544
3	0	519,3644	4,06165266
3	0	521,8644	4,06167173
3	0	524,3644	4,06155729
3	0	526,8644	4,06148148
3	0	529,3644	4,06153822
3	0	531,8644	4,06153822
3	0	534,3644	4,06151915
3	0	536,8644	4,06142426
3	0	539,3644	4,06155729
3	0	541,8644	4,06155729
3	0	544,3644	4,06142426
3	0	546,8644	4,06148148
3	0	549,3644	4,06136703
3	0	551,8644	4,06144333
3	0	554,3644	4,06144333
3	0	556,8644	4,06140518
3	0	559,3644	4,06148148
3	0	561,8644	4,06134796
3	0	564,3644	4,06144333
3	0	566,8644	4,06138611
3	0	569,3644	4,06123352
3	0	571,8644	4,06129074
3	0	574,3644	4,06132889
3	0	576,8644	4,06134796
3	0	579,3644	4,06121445
3	0	581,8644	4,06121445
3	0	584,3644	4,0611763
3	0	586,8644	4,06121445
3	0	589,3644	4,06119537
3	0	591,8644	4,06119537
3	0	594,3644	4,06110001
3	0	596,8644	4,06113815
3	0	599,3644	4,06108093
3	0	600,0000	4,06108093