File: Experimentelles/Rohdaten/Batterietests/AlteZelle/Studenten_Batterietests/SemArbeitToph/ECLab-Export/Al_Struktur_01_01_GCPL_C03.mpt
EC-Lab ASCII FILE
Nb header lines : 68

Galvanostatic Cycling with Potential Limitation

Run on channel : 3 (SN 6987)
Grouped channel(s) : 3
User :
CE vs. WE compliance from -10 V to 10 V
Electrode connection : standard
Ewe ctrl range : min = -10,00 V, max = 10,00 V
Acquisition started on : 03.11.2015 16:50:59
Saved on :
	File : Al_Struktur_01_01_GCPL_C03.mpr
	Directory : C:\Hupfer\Studenten Batterietests\SemArbeitToph\
	Host : 192.168.0.2
Device : VMP3 (SN 0324)
Address : 192.168.0.1
EC-Lab for windows v10.33 (software)
Internet server v10.33 (firmware)
Command interpretor v10.32 (firmware)
Electrode material :
Initial state :
Electrolyte :
Comments :
Mass of active material : 0,001 mg
 at x = 0,000
Molecular weight of active material (at x = 0) : 0,001 g/mol
Atomic weight of intercalated ion : 0,001 g/mol
Acquisition started at : xo = 0,000
Number of e- transfered per intercalated ion : 1
for DX = 1, DQ = 26,801 mA.h
Battery capacity : 0,000 A.h
Electrode surface area : 0,001 cm²
Characteristic mass : 0,001 g
Ns                  0                   1
Set I/C             I                   I
Is                  0,000               100,000
unit Is             mA                  µA
vs.                 <None>              <None>
N                   1                   1
I sign              > 0                 > 0
t1 (h:m:s)          0:00:0,0000         10:00:0,0000
I Range             1 A                 1 A
Bandwidth           5                   5
dE1 (mV)            0,00                10,00
dt1 (s)             0,0000              10,0000
EM (V)              0,000               4,200
tM (h:m:s)          0:00:0,0000         1:00:0,0000
Im                  0,000               0,000
unit Im             mA                  mA
E range min (V)     -10,000             -10,000
E range max (V)     10,000              10,000
dq                  0,000               1,000
unit dq             mA.h                mA.h
dtq (s)             0,0000              120,0000
dQM                 0,000               0,000
unit dQM            mA.h                mA.h
dxM                 0,000               0,000
tR (h:m:s)          0:00:0,0000         0:15:0,0000
dER/dt (mV/h)       0,0                 0,1
dER (mV)            0,00                5,00
dtR (s)             1,0000              120,0000
EL (V)              pass                4,200
goto Ns'            0                   0
nc cycles           0                   0

mode	ox/red	error	control changes	Ns changes	counter inc.	Ns	time/s	control/V/mA	Ewe/V	dq/mA.h	<I>/mA	P/W	(Q-Qo)/mA.h	x	Capacity/mA.h
1	1	1	1	1	0	1	0,0004	0,100000001	2,87895489	0	0	0	0	0	0
1	1	0	1	0	0	1	0,7880	0,100000001	2,99030542	4,5468544914490643E-006	0,20512126043514016	0,000613375218	4,2548761130621043E-005	-1,5875514852012406E-006	4,2548761130621043E-005
1	1	0	1	0	0	1	1,7682	0,100000001	3,10140824	5,5546653605997562E-006	0,20488520290287578	0,000635432662	9,8859443979130854E-005	-3,6885787727974502E-006	9,8859443979130854E-005
1	1	0	1	0	0	1	2,9594	0,100000001	3,21212983	6,880850708319081E-006	0,21099713096864038	0,000677750155	0,00016764113194412653	-6,2549160287344576E-006	0,00016764113194412653
1	1	0	1	0	0	1	4,4188	0,100000001	3,32308006	8,8662529186242163E-006	0,21082239969205149	0,000700579723	0,00025226441288656656	-9,4123244179081997E-006	0,00025226441288656656
1	1	0	1	0	0	1	6,1820	0,100000001	3,43414474	9,7402326775093875E-006	0,20921741363273341	0,000718482886	0,00035457375502296608	-1,3229623529390749E-005	0,00035457375502296608
1	1	0	1	0	0	1	8,2916	0,100000001	3,54479003	1,2644782394998605E-005	0,20823978852679626	0,000738166331	0,00047767663559565926	-1,7822757517141181E-005	0,00047767663559565926
1	1	0	1	0	0	1	10,8886	0,100000001	3,65562606	1,5235094285673568E-005	0,20885887590997696	0,000763509946	0,00062862257873225536	-2,3454753604546592E-005	0,00062862257873225536
1	1	0	1	0	0	1	14,3382	0,100000001	3,76651907	2,221589366843303E-005	0,20827400840300365	0,000784468022	0,00082833476696411776	-3,0906283863370253E-005	0,00082833476696411776
1	1	0	1	0	0	1	69,3104	0,100000001	3,82841873	0,00057460268681330816	0,2068569724784376	0,000791935134	0,0039918117995034483	-0,00014893986528751933	0,0039918117995034483
1	1	0	1	0	0	1	179,3104	0,100000001	3,83453798	0,00058273319461527795	0,20978395536108851	0,000804424519	0,010348566807941219	-0,00038611894140034029	0,010348566807941219
1	1	0	1	0	0	1	289,3104	0,100000001	3,83671141	0,00058184878275336499	0,20946556708275667	0,000803658913	0,016738719064364205	-0,00062454411373856717	0,016738719064364205
1	1	0	1	0	0	1	399,3104	0,100000001	3,84122944	0,00057337455304629274	0,20641484431114294	0,000792886771	0,023126973423992384	-0,00086289847299563034	0,023126973423992384
1	1	0	1	0	0	1	509,3104	0,100000001	3,84957933	0,00058571919007019866	0,21085891375201574	0,000811718113	0,029508237711406202	-0,0011009920232601238	0,029508237711406202
1	1	0	1	0	0	1	619,3104	0,100000001	3,85545087	0,00058316602953068096	0,20993977593456995	0,000809412508	0,03592915413773287	-0,0013405650481403235	0,03592915413773287
1	1	0	1	0	0	1	722,2494	0,100000001	3,86442971	0,00058748377077778189	0,21149416282279341	0,000817304302	0,04197380460619367	-0,0015660990842375866	0,04197380460619367
1	1	0	1	0	0	1	832,2494	0,100000001	3,86925292	0,00059177746502434214	0,21303989279060352	0,000824305229	0,048390775302785958	-0,0018055248886363066	0,048390775302785958
1	1	0	1	0	0	1	942,2494	0,100000001	3,87175035	0,00057561298867315059	0,2072206811571689	0,000802306749	0,054775113992168666	-0,0020437331489718365	0,054775113992168666
1	1	0	1	0	0	1	1052,2494	0,100000001	3,87952828	0,00057842641594757645	0,20823351500154854	0,000807847828	0,061157556906759322	-0,0022818706754009782	0,061157556906759322
1	1	0	1	0	0	1	1162,2494	0,100000001	3,89005136	0,0005810092808736695	0,20916334639843158	0,000813656137	0,067600323719155866	-0,0025222589675636016	0,067600323719155866
1	1	0	1	0	0	1	1272,2494	0,100000001	3,89674258	0,00058493662150038618	0,21057718905976627	0,000820565096	0,074011840129920602	-0,0027614812652247302	0,074011840129920602
1	1	0	1	0	0	1	1382,2494	0,100000001	3,8998692	0,00058612444235922573	0,21100480457975094	0,000822891132	0,080468362889677875	-0,0030023828102784506	0,080468362889677875
1	1	0	1	0	0	1	1492,2494	0,100000001	3,90581703	0,00058427287046445734	0,21033823868079552	0,000821542693	0,086899616786603072	-0,0032423415400855578	0,086899616786603072
1	1	0	1	0	0	1	1591,9544	0,100000001	3,91227961	0,00058629665693599322	0,21106680182895341	0,00082575233	0,092760704969798694	-0,0034610266205174605	0,092760704969798694
1	1	0	1	0	0	1	1701,9544	0,100000001	3,91662598	0,00058799829231161216	0,21167939057965158	0,000829069002	0,099170474834182131	-0,0037001837521848461	0,099170474834182131
1	1	0	1	0	0	1	1811,9544	0,100000001	3,92167783	0,00059214487981879053	0,21317216211994637	0,000835992571	0,1056882214639476	-0,0039433696421449402	0,1056882214639476
1	1	0	1	0	0	1	1921,9544	0,100000001	3,92789268	0,00059001040915110042	0,21240375266016627	0,000834299135	0,11219987480930482	-0,004186328183471255	0,11219987480930482
1	1	0	1	0	0	1	2031,9543	0,100000001	3,93443155	0,00058621426266969907	0,21103713989233821	0,000830311154	0,11867884098145485	-0,0044280671224168371	0,11867884098145485
1	1	0	1	0	0	1	2141,9543	0,100000001	3,94238091	0,00058642007157289331	0,21111123109935984	0,000832280901	0,1251238596672945	-0,0046685394350052992	0,1251238596672945
1	1	0	1	0	0	1	2251,9543	0,100000001	3,94903421	0,00058282549011169216	0,20981718174063699	0,000828575226	0,13154470077226512	-0,0049081096495444339	0,13154470077226512
1	1	0	1	0	0	1	2361,9543	0,100000001	3,9592905	0,00057990703682228915	0,20876653852991046	0,000826567353	0,13796678663048806	-0,005147726307501001	0,13796678663048806
1	1	0	1	0	0	1	2471,9543	0,100000001	3,96678233	0,00058596354371350669	0,21094688106582886	0,000836780353	0,1443747738798737	-0,0053868169274060666	0,1443747738798737
1	1	0	1	0	0	1	2581,9543	0,100000001	3,97614264	0,00058179078846797338	0,20944468913948832	0,000832781952	0,1507947111229551	-0,0056263534176428608	0,1507947111229551
1	1	0	1	0	0	1	2691,9543	0,100000001	3,9879241	0,00059264985392325453	0,21335395280214579	0,000850839366	0,15723570309959498	-0,0058666754882971098	0,15723570309959498
1	1	0	1	0	0	1	2801,9543	0,100000001	3,99993396	0,00058966209034166413	0,21227835788560144	0,000849099422	0,16367460021113917	-0,0061069193967180634	0,16367460021113917
1	1	0	1	0	0	1	2911,9543	0,100000001	4,01285934	0,00058904996819835571	0,21205799390844358	0,000850958924	0,17012481928128214	-0,0063475857426368742	0,17012481928128214
1	1	0	1	0	0	1	3021,9543	0,100000001	4,03262854	0,00059289880463729306	0,21344357506146374	0,000860738626	0,1766354036227639	-0,0065905043979913037	0,1766354036227639
1	1	0	1	0	0	1	3131,9543	0,100000001	4,0536747	0,00058736141664120883	0,2114501153325144	0,000857150008	0,18314059414792189	-0,0068332218028066304	0,18314059414792189
1	1	0	1	0	0	1	3241,9543	0,100000001	4,0790863	0,00058967906424941299	0,21228446849254541	0,000865926675	0,18960039322789286	-0,0070742455917725824	0,18960039322789286
1	1	0	1	0	0	1	3351,9543	0,100000001	4,10268736	0,00058885547539219264	0,21198797649645606	0,000869720418	0,19606905092608624	-0,0073155999076949517	0,19606905092608624
1	1	0	1	0	0	1	3461,9543	0,100000001	4,12491512	0,00059348086852497523	0,21365311806632282	0,000881301006	0,20250725953219405	-0,0075558181270523686	0,20250725953219405
1	1	0	1	0	0	1	3571,9543	0,100000001	4,15328217	0,0005931198191982176	0,21352314030540656	0,000886821828	0,20897809059947843	-0,0077972535342976486	0,20897809059947843
1	1	0	1	0	0	1	3681,9543	0,100000001	4,18250656	0,0005925395232931607	0,21331423377430867	0,000892188167	0,21545828490549315	-0,0080390382965689677	0,21545828490549315
2	1	0	0	0	0	1	4109,9197	4,20005465	4,19941759	0,0037748424224726496	0,11324508662038525	0,0004755634	0,23283520537642963	-0,0086873945628576627	0,23283520537642963
2	1	0	0	0	0	1	5429,9197	4,20005465	4,19947481	0,0033650152488068109	0,10095045868643107	0,000423938909	0,27102023413867322	-0,010112129326294171	0,27102023413867322
2	1	0	0	0	0	1	6749,9197	4,20005465	4,19955111	0,0031423453512502477	0,094270361678856922	0,000395893207	0,30708883351082419	-0,011457897263616746	0,30708883351082419
3	1	0	1	0	0	1	7949,9192	0	4,19291687	0	0	0	0,32340360056697146	-0,012066623157919203	0,32340360056697146
2	1	0	0	0	0	1	8969,9198	4,20005465	4,19937944	0,0034572091003127091	0,10371627426509426	0,000435544003	0,34372820727981978	-0,012824961561099933	0,34372820727981978
2	1	0	0	0	0	1	10289,9198	4,20005465	4,19932222	0,0024371323668176	0,073113971889732992	0,000307029113	0,37956074257987744	-0,014161921630501184	0,37956074257987744
2	1	0	0	0	0	1	11609,9198	4,20005465	4,19936037	0,0034193887283785472	0,10258166309333245	0,000430777378	0,41540025533296973	-0,015499142038056445	0,41540025533296973
3	1	0	1	0	0	1	12201,1712	0	4,20361137	0	0	0	0,42193112765838573	-0,015742817665368947	0,42193112765838573
2	1	0	0	0	0	1	13109,9204	4,20005465	4,19932222	0,003076671479364935	0,092300145498443763	0,000387598062	0,43151868859095616	-0,01610054245437592	0,43151868859095616
2	1	0	0	0	0	1	14429,9204	4,20005465	4,19960833	0,0035214497337201222	0,10564349329064989	0,000443661294	0,46845254491461594	-0,017478594291909632	0,46845254491461594
2	1	0	0	0	0	1	15749,9204	4,20005465	4,19947481	0,0032759170209977434	0,098277511819797158	0,00041271394	0,50331027790309235	-0,018779183176430144	0,50331027790309235
3	1	0	1	0	0	1	16771,0559	0	4,19602394	0	0	0	0,51983769773195098	-0,019395843431597152	0,51983769773195098
1	1	0	1	0	0	1	17249,9205	0,100000001	4,20991373	0	0	0	0,51983769773195098	-0,019395843431597152	0,51983769773195098
2	1	0	0	0	0	1	18449,9209	4,20005465	4,19937944	0,0036609184334620365	0,10982755433356456	0,000461207586	0,55162753770934234	-0,020581965103048054	0,55162753770934234
2	1	0	0	0	0	1	19769,9209	4,20005465	4,1993413	0,0026117395438180534	0,078352187263166694	0,000329027564	0,58430610718367552	-0,021801246466939373	0,58430610718367552
3	1	0	1	0	0	1	20969,9209	0	4,20140028	0	0	0	0,60990230078304218	-0,022756274864580054	0,60990230078304218
3	1	0	1	0	0	1	21749,9209	0	4,20334435	0	0	0	0,60990230078304218	-0,022756274864580054	0,60990230078304218