File: Experimentelles/Rohdaten/Batterietests/AlteZelle/Studenten_Batterietests/SemArbeitToph/ECLab-Export/Al_Sand_01_Zyklieren_02_GCPL_C02.mpt
EC-Lab ASCII FILE
Nb header lines : 77

Galvanostatic Cycling with Potential Limitation

Run on channel : 2 (SN 6986)
Grouped channel(s) : 2
User :
CE vs. WE compliance from -10 V to 10 V
Electrode connection : standard
Ewe ctrl range : min = 0,00 V, max = 5,00 V
Acquisition started on : 03.16.2015 02:19:24
Saved on :
	File : Al_Sand_01_Zyklieren_02_GCPL_C02.mpr
	Directory : C:\Hupfer\Studenten Batterietests\SemArbeitToph\
	Host : 192.168.0.2
Device : VMP3 (SN 0324)
Address : 192.168.0.1
EC-Lab for windows v10.33 (software)
Internet server v10.33 (firmware)
Command interpretor v10.32 (firmware)
Electrode material :
Initial state :
Electrolyte :
Comments :
Mass of active material : 0,001 mg
 at x = 0,000
Molecular weight of active material (at x = 0) : 0,001 g/mol
Atomic weight of intercalated ion : 0,001 g/mol
Acquisition started at : xo = 0,000
Number of e- transfered per intercalated ion : 1
for DX = 1, DQ = 26,801 mA.h
Battery capacity : 0,000 A.h
Electrode surface area : 0,001 cm²
Characteristic mass : 0,001 g
Ns                  0                   1                   2
Set I/C             I                   I                   I
Is                  0,000               100,000             -100,000
unit Is             mA                  µA                  µA
vs.                 <None>              <None>              <None>
N                   1                   1                   1
I sign              > 0                 > 0                 > 0
t1 (h:m:s)          0:00:0,0000         4:00:0,0000         4:00:0,0000
I Range             1 A                 1 A                 1 A
Bandwidth           5                   5                   5
dE1 (mV)            0,00                10,00               10,00
dt1 (s)             0,0000              10,0000             10,0000
EM (V)              0,000               4,500               2,500
tM (h:m:s)          0:00:0,0000         0:00:0,0000         0:00:0,0000
Im                  0,000               0,000               0,000
unit Im             mA                  mA                  mA
E range min (V)     0,000               0,000               0,000
E range max (V)     5,000               5,000               5,000
dq                  0,000               1,000               1,000
unit dq             mA.h                mA.h                mA.h
dtq (s)             0,0000              120,0000            120,0000
dQM                 0,000               0,000               0,000
unit dQM            mA.h                mA.h                mA.h
dxM                 0,000               0,000               0,000
tR (h:m:s)          0:00:10,0000        0:05:0,0000         0:05:0,0000
dER/dt (mV/h)       0,0                 0,1                 0,1
dER (mV)            0,00                5,00                5,00
dtR (s)             1,0000              120,0000            120,0000
EL (V)              pass                4,200               3,500
goto Ns'            0                   0                   0
nc cycles           0                   0                   0

Modify on : 03.16.2015 11:52
Ns                  0                   1                   2
EM (V)                                  4,200

Number of loops : 3
Loop 0 from point number 0 to 2595
Loop 1 from point number 2596 to 5027
Loop 2 from point number 5028 to 23932

mode	ox/red	error	control changes	Ns changes	counter inc.	Ns	time/s	control/V/mA	Ewe/V	dq/mA.h	<I>/mA	P/W	(Q-Qo)/mA.h	x	Capacity/mA.h
3	1	0	0	0	0	0	600,0006	0	3,62960768	0	0	0	0	0	0
1	1	0	0	0	0	1	3612,7381	0,100000001	3,91841674	0,00057544463318669139	0,20716007318051251	0,000811739475	0,17270367695007485	-0,0064438063895705421	0,17270367695007485
1	1	0	0	0	0	1	6872,7381	0,100000001	4,1143961	0,00056948012100367078	0,20501284604345165	0,000843504036	0,36061853894005171	-0,013455162544635626	0,36061853894005171
1	1	0	0	0	0	1	10132,7380	0,100000001	4,47209787	0,00057736966153275635	0,20785308066830976	0,000929539325	0,54846483431317651	-0,020463960387037165	0,54846483431317651
1	0	0	1	0	0	2	13092,7834	-0,100000001	3,80897379	-1,7331170813128765E-005	-0,0062392215682658176	2,37650311E-005	0,57226355733549914	-0,02135192274072344	0,0031761906428099098
1	0	0	1	0	0	2	16352,7833	-0,100000001	3,61177421	-1,8412960704467776E-005	-0,0066286659338629402	2,39412439E-005	0,5685243398273536	-0,02121240750806312	0,0069387772594853798
1	0	0	1	0	0	2	19596,0627	-0,100000001	3,44575953	-7,2268062749644736E-006	-0,0026016502904858941	8,96466099E-006	0,56348903753682886	-0,021024533609567709	0,011974224047379182
1	0	0	1	0	0	2	22856,0627	-0,100000001	3,25790596	-2,1938586196357693E-005	-0,0078978911263100659	2,57305874E-005	0,55820915975529453	-0,020827534270667482	0,017254101828913616
1	1	0	0	0	0	1	25606,9528	0,100000001	3,47492266	1,5079919741385514E-006	0,20106559892199411	0,000698687392	0,55390867895101146	-0,020667077549801747	1,5136281342970003E-006
1	1	0	0	0	0	1	28591,8606	0,100000001	3,97113562	0,00058483652141731635	0,21054115025929635	0,000836087449	0,72559622417351488	-0,02707297069841296	0,17168905885063754
1	1	0	0	0	0	1	31851,8606	0,100000001	4,32693052	0,00055576107245849235	0,20007398850739171	0,000865706243	0,91103011675590221	-0,033991758549182035	0,35712295143302458
1	0	0	1	0	0	2	34771,7090	-0,100000001	3,88780403	-1,5105743720842941E-005	-0,0054380677293742682	2,11421411E-005	1,0085314167869088	-0,037629663145231014	0,0018435340988561517
1	0	0	1	0	0	2	38031,7090	-0,100000001	3,57690811	-3,4576551681901843E-005	-0,01244755858229928	4,45237747E-005	1,000284962741879	-0,037321976857335571	0,010089988143885568
1	0	0	1	0	0	2	41291,7090	-0,100000001	3,39464283	-3,4465934671759085E-005	-0,012407736458722061	4,21198347E-005	0,99103553308846285	-0,036976868200976179	0,019339417797302275
1	0	0	1	0	0	2	44550,7110	-0,100000001	3,2202549	-2,9886792397605152E-005	-0,0107592452430972	3,46475135E-005	0,98232513456887117	-0,036651871520954842	0,02804981631689343
1	0	0	1	0	0	2	47805,8824	-0,100000001	3,02015615	-2,4284526089917763E-005	-0,0087424293760863514	2,64035025E-005	0,97495470105005069	-0,036376870736714394	0,035420249835713402
1	1	0	0	0	0	1	50083,0338	0,100000001	3,90836525	0,00056859800854863392	0,20469528269623354	0,000800023903	1,0586590218503696	-0,039499991487430547	0,08487497611096023
1	1	0	0	0	0	1	53343,0338	0,100000001	4,10287571	0,00057272407770281037	0,2061806675889703	0,000845933624	1,2466661689149763	-0,046514790922708672	0,27288212317556698
1	1	0	0	0	0	1	55568,4984	0,100000001	4,03119802	2,5485369607806208E-005	0,20710458338049341	0,000834879582	1,3062378332035146	-0,048737489812268518	0,33245378746410445
3	1	0	1	0	0	1	57073,9528	0	4,00789022	0	0	0	1,3224630676694202	-0,049342875125251213	0,34867902193000947
3	1	0	0	0	0	1	58773,2102	0	4,0881319	0	0	0	1,3350838173704016	-0,049813772265373274	0,36129977163099168
1	1	0	0	0	0	1	60439,5474	0,100000001	4,16658068	0,00012169837124024829	0,20746005097119939	0,000864399015	1,3449252451467283	-0,050180969167648403	0,37114119940731763
3	1	0	1	0	0	1	61863,3166	0	3,96730185	0	0	0	1,353668212878685	-0,050507181048772838	0,37988416713927405
3	1	0	0	0	0	1	63455,0068	0	4,09818363	0	0	0	1,362932382720153	-0,050852839681366835	0,38914833698074099
1	1	0	0	0	0	1	65084,2772	0,100000001	4,06146717	3,5700135840309997E-005	0,20536990856698438	0,00083410315	1,3706602114846504	-0,051141175362746509	0,39687616574523846
3	1	0	1	0	0	1	66457,8700	0	4,03819752	0	0	0	1,3798714612031573	-0,051484859474400966	0,4060874154637447
1	1	0	1	0	0	1	68080,6898	0,100000001	4,19316912	0,00024671710819212928	0,20657312322770477	0,00086619606	1,3877299924679686	-0,051778071841798739	0,41394594672855584
3	1	0	0	0	0	1	69443,5969	0	3,9719367	0	0	0	1,394326337258591	-0,052024190334816755	0,42054229151917888
3	1	0	1	0	0	1	71035,3373	0	4,12923479	0	0	0	1,4023440594314432	-0,052323342329027981	0,42856001369203123
1	1	0	1	0	0	1	72644,7845	0,100000001	4,01069403	2,2463587425649165E-005	0,20504293585720864	0,000822364469	1,4087444988342643	-0,052562151328629536	0,43496045309485216
3	1	0	0	0	0	1	73972,9046	0	4,0626688	0	0	0	1,4157513790170362	-0,052823587449099354	0,44196733327762438
1	1	0	0	0	0	1	75567,3484	0,100000001	4,12839556	5,419728597087993E-005	0,2108388536940161	0,000870426185	1,4217283364530006	-0,05304659576713993	0,44794429071358886
3	1	0	1	0	0	1	76901,9309	0	4,0129447	0	0	0	1,4283586192186976	-0,05329398053163808	0,45457457347928717
3	1	0	0	0	0	1	78495,3515	0	4,15856981	0	0	0	1,4349949229936214	-0,053541589948085805	0,46121087725420922
3	1	0	0	0	0	1	80006,2568	0	3,94870543	0	0	0	1,4403331350813653	-0,05374076581838201	0,46654908934195226
3	1	0	1	0	0	1	81406,2841	0	4,09494114	0	0	0	1,4469453063694054	-0,053987474819297645	0,47316126062999251
1	1	0	1	0	0	1	82992,0775	0,100000001	4,07985401	3,3973301803072294E-005	0,20659445243943683	0,000842875219	1,4521813930953011	-0,054182840255034278	0,4783973473558873
3	1	0	0	0	0	1	84308,1728	0	4,02877569	0	0	0	1,4579846104967562	-0,054399366098791354	0,48420056475734234
3	1	0	1	0	0	1	85896,4726	0	4,20016909	0	0	0	1,4640372181146746	-0,054625197026833376	0,49025317237526086
3	1	0	1	0	0	1	87253,8287	0	3,96383047	0	0	0	1,4686596530169482	-0,054797666287967034	0,4948756072775351
3	1	0	0	0	0	1	88778,2021	0	4,10470676	0	0	0	1,4743707034813408	-0,055010753259382534	0,50058665774192845
1	1	0	0	0	0	1	90355,5399	0,100000001	4,07342625	3,2276526022288531E-005	0,20823570005945094	0,000848232768	1,4790943784903565	-0,05518699992501751	0,50531033275094381
3	1	0	1	0	0	1	91670,0100	0	4,01433706	0	0	0	1,4844064602733917	-0,055385200838512467	0,51062241453397958
3	1	0	0	0	0	1	93248,3155	0	4,13587236	0	0	0	1,4900352822403168	-0,055595219754130074	0,51625123650090419
1	1	0	0	0	0	1	94821,3927	0,100000001	4,05536366	2,9917296799520653E-005	0,21101546624455312	0,000855744467	1,4943584133834502	-0,055756521589592019	0,52057436764403584
3	1	0	1	0	0	1	96125,1472	0	4,02410269	0	0	0	1,4992423695840934	-0,05593874856198697	0,52545832384467885
3	1	0	0	0	0	1	97697,0428	0	4,14617205	0	0	0	1,5044334087179523	-0,056132433211497587	0,5306493629785385
1	1	0	0	0	0	1	99267,0710	0,100000001	4,03703403	2,5885861064824797E-005	0,20894422022105981	0,000843514921	1,5085409089359203	-0,056285689567222746	0,53475686319650694
3	1	0	1	0	0	1	100568,2953	0	4,0305686	0	0	0	1,5133587691790694	-0,056465450410576634	0,53957472343965549
3	1	0	0	0	0	1	102135,1960	0	4,12622118	0	0	0	1,518195786256097	-0,056645926021159162	0,54441174051668326
1	1	0	0	0	0	1	103706,2738	0,100000001	4,13972521	4,6229860972613094E-005	0,2069994272502272	0,000856920728	1,5224408383694966	-0,05680431462304336	0,54865679263008282
1	1	0	1	0	0	1	105279,5318	0,100000001	3,98986578	2,5496586743328307E-006	0,20672913665696605	0,000824821531	1,526680466504431	-0,056962500848998426	0,55289642076501786
3	1	0	0	0	0	1	106584,5099	0	4,01576757	0	0	0	1,5312639844817254	-0,057133518067336742	0,55747993874231315
3	1	0	1	0	0	1	108145,0433	0	4,08572865	0	0	0	1,5358127203467018	-0,057303237518299424	0,56202867460728864
3	1	0	0	0	0	1	109713,8962	0	4,15156984	0	0	0	1,540186271442424	-0,057466420589982803	0,56640222570301114
1	1	0	0	0	0	1	111281,2686	0,100000001	4,14497042	5,0045804540730189E-005	0,20408352818288662	0,000845920178	1,5441119877313005	-0,057612894342902477	0,57032794199188666
1	1	0	1	0	0	1	112848,5862	0,100000001	4,05458164	2,613364242762327E-005	0,20934832022648224	0,000848819851	1,548039826432784	-0,057759447285890125	0,57425578069336947
3	1	0	0	0	0	1	114352,0527	0	3,96528006	0	0	0	1,5520088515169885	-0,057907536948192781	0,57822480577757427
3	1	0	1	0	0	1	115719,7703	0	4,01143789	0	0	0	1,5561277787947654	-0,058061219662883264	0,58234373305535066
3	1	0	0	0	0	1	117272,3674	0	4,05646992	0	0	0	1,5601834807113046	-0,05821254335433856	0,58639943497188992
3	1	0	1	0	0	1	118836,0472	0	4,09251881	0	0	0	1,5642520985768013	-0,05836434895721513	0,59046805283738611
3	1	0	0	0	0	1	120403,0038	0	4,10646152	0	0	0	1,5682433600519674	-0,058513268289161715	0,5944593143125536
3	1	0	1	0	0	1	121971,8643	0	4,10125446	0	0	0	1,5721848983184147	-0,058660332381337434	0,59840085257900019
3	1	0	0	0	0	1	123539,9101	0	4,09742069	0	0	0	1,5760520123947744	-0,05880461960691657	0,60226796665535782
3	1	0	0	0	0	1	124804,2908	0	4,05275059	0	0	0	1,5791721718352109	-0,058921036950738253	0,60538812609579456
3	1	0	1	0	0	1	126373,6328	0	4,04214573	0	0	0	1,5829237229515741	-0,059061012366903872	0,60913967721215578
3	1	0	0	0	0	1	127945,4818	0	4,02728796	0	0	0	1,5865949556129517	-0,059197990993524698	0,6128109098735328
3	1	0	1	0	0	1	129532,6015	0	4,00151968	0	0	0	1,5902860581632182	-0,059335710992415283	0,61650201242379866
3	1	0	0	0	0	1	131344,4200	0,100000001	3,99618483	0	0	0	1,5937988147153066	-0,05946677666232512	0,62001476897588698
1	1	0	1	0	0	1	132907,7806	0,100000001	4,04809666	2,1753427177253696E-005	0,20362019083519955	0,000824274204	1,5974019162839376	-0,059601213226272333	0,62361787054451699
1	1	0	0	0	0	1	134472,1236	0,100000001	4,10936069	3,0171303213470509E-005	0,2061819938954144	0,000847276184	1,6010798169144723	-0,059738440643787571	0,62729577117505114
1	1	0	1	0	0	1	136039,5515	0,100000001	4,20043612	7,7766252951075622E-005	0,2025455557919672	0,000850779645	1,6049267265008195	-0,05988197401267913	0,63114268076139738
3	1	0	1	0	0	1	137603,0351	0	4,11264133	0	0	0	1,6082556196613379	-0,060006179492242534	0,63447157392191718
3	1	0	0	0	0	1	139184,1182	0	4,03205633	0	0	0	1,6115671448184973	-0,060129736948249075	0,63778309907907661
3	1	0	0	0	0	1	139933,6273	0	3,98576498	0	0	0	1,6128614942776259	-0,060178030866840525	0,63907744853820531