File: Experimentelles/Rohdaten/Batterietests/AlteZelle/Studenten_Batterietests/SemArbeitToph/ECLab-Export/Al_Sand_01_01_GCPL_C02.mpt
EC-Lab ASCII FILE
Nb header lines : 68

Galvanostatic Cycling with Potential Limitation

Run on channel : 2 (SN 6986)
Grouped channel(s) : 2
User :
CE vs. WE compliance from -10 V to 10 V
Electrode connection : standard
Ewe ctrl range : min = -10,00 V, max = 10,00 V
Acquisition started on : 03.11.2015 16:05:34
Saved on :
	File : Al_Sand_01_01_GCPL_C02.mpr
	Directory : C:\Hupfer\Studenten Batterietests\SemArbeitToph\
	Host : 192.168.0.2
Device : VMP3 (SN 0324)
Address : 192.168.0.1
EC-Lab for windows v10.33 (software)
Internet server v10.33 (firmware)
Command interpretor v10.32 (firmware)
Electrode material :
Initial state :
Electrolyte :
Comments :
Mass of active material : 0,001 mg
 at x = 0,000
Molecular weight of active material (at x = 0) : 0,001 g/mol
Atomic weight of intercalated ion : 0,001 g/mol
Acquisition started at : xo = 0,000
Number of e- transfered per intercalated ion : 1
for DX = 1, DQ = 26,801 mA.h
Battery capacity : 0,000 A.h
Electrode surface area : 0,001 cm²
Characteristic mass : 0,001 g
Ns                  0                   1
Set I/C             I                   I
Is                  0,000               100,000
unit Is             mA                  µA
vs.                 <None>              <None>
N                   1                   1
I sign              > 0                 > 0
t1 (h:m:s)          0:00:0,0000         10:00:0,0000
I Range             1 A                 1 A
Bandwidth           5                   5
dE1 (mV)            0,00                10,00
dt1 (s)             0,0000              10,0000
EM (V)              0,000               4,200
tM (h:m:s)          0:00:0,0000         1:00:0,0000
Im                  0,000               0,000
unit Im             mA                  mA
E range min (V)     -10,000             -10,000
E range max (V)     10,000              10,000
dq                  0,000               1,000
unit dq             mA.h                mA.h
dtq (s)             0,0000              120,0000
dQM                 0,000               0,000
unit dQM            mA.h                mA.h
dxM                 0,000               0,000
tR (h:m:s)          0:00:0,0000         0:15:0,0000
dER/dt (mV/h)       0,0                 0,1
dER (mV)            0,00                5,00
dtR (s)             1,0000              120,0000
EL (V)              pass                4,200
goto Ns'            0                   0
nc cycles           0                   0

mode	ox/red	error	control changes	Ns changes	counter inc.	Ns	time/s	control/V/mA	Ewe/V	dq/mA.h	<I>/mA	P/W	(Q-Qo)/mA.h	x	Capacity/mA.h
1	1	1	1	1	0	1	0,0004	0,100000001	1,6743058	0	0	0	0	0	0
1	1	0	1	0	0	1	29,5554	0,100000001	2,03752017	0,00011552554944281776	0,19714258082122643	0,000401681988	0,0016328732858207075	-6,0924697715452787E-005	0,0016328732858207075
1	1	0	1	0	0	1	98,3754	0,100000001	2,40025759	7,8270643522135078E-005	0,20118115364694016	0,000482886593	0,0054172187045446291	-0,00020212371339457229	0,0054172187045446291
1	1	0	1	0	0	1	145,6380	0,100000001	2,76379609	5,1800532167570458E-005	0,20086376617210598	0,000555146486	0,0080351903894849958	-0,00029980375686006368	0,0080351903894849958
1	1	0	1	0	0	1	194,5966	0,100000001	3,12645721	6,1705323947800525E-005	0,19915651051083862	0,000622654334	0,010749683927165763	-0,00040108516042631059	0,010749683927165763
1	1	0	1	0	0	1	205,7950	0,100000001	2,90163946	1,3775514228476419E-005	0,2011024025762801	0,000583526678	0,011375182775870176	-0,00042442336346361875	0,011375182775870176
1	1	0	1	0	0	1	233,1712	0,100000001	3,204391	6,0035212639305318E-005	0,20161079380720208	0,000646039785	0,012902709166591158	-0,00048141742688249389	0,012902709166591158
1	1	0	1	0	0	1	294,8820	0,100000001	3,56749105	9,555479581322935E-005	0,1999519144488071	0,000713326677	0,016345809579314045	-0,00060988413257892454	0,016345809579314045
1	1	0	1	0	0	1	371,2872	0,100000001	3,93017125	0,00019540890124585066	0,20024823861550282	0,000787009893	0,020613246685558099	-0,00076910794864310208	0,020613246685558099
1	1	0	1	0	0	1	570,2958	0,100000001	3,9367516	9,8967850911948429E-007	0,20015970353006298	0,00078797905	0,031648681507695258	-0,00118085485915696	0,031648681507695258
1	1	0	1	0	0	1	700,8662	0,100000001	4,02647257	0,00055310413108641894	0,19911749222124176	0,000801741146	0,038882309086507411	-0,0014507512298381587	0,038882309086507411
1	1	0	1	0	0	1	730,1646	0,100000001	3,74838281	9,6934046418302592E-006	0,1982741908644463	0,00074320758	0,040503438188614336	-0,0015112377362690272	0,040503438188614336
1	1	0	1	0	0	1	785,2728	0,100000001	4,00514889	4,756049235289296E-005	0,20243293544069459	0,000810774043	0,043566606811035418	-0,0016255286760455731	0,043566606811035418
1	1	0	1	0	0	1	839,5112	0,100000001	3,78401184	2,8088730242517261E-009	0,050559715713776915	0,00019131857	0,046569067799051616	-0,0017375545323601898	0,046569072783625798
1	1	0	1	0	0	1	925,0006	0,100000001	3,99761462	1,2546112827128835E-006	0,19637394486370922	0,00078502734	0,0513197763304752	-0,0019148098550631571	0,051319781315049382
1	1	0	1	0	0	1	1070,6990	0,100000001	3,76949716	7,4236103230052518E-007	0,20246210483294803	0,000763180316	0,059411039687841549	-0,0022167057697457811	0,059411044672415731
1	1	0	1	0	0	1	1071,3936	0,100000001	3,80611801	4,3971382896933293E-006	0,19639824122565507	0,000747514889	0,059448943367792013	-0,0022181200070067728	0,059448950509649306
1	1	0	1	0	0	1	1149,9598	0,100000001	4,0299058	0,00054780509105117786	0,19720983776036355	0,000794737076	0,063775327311184794	-0,0023795432088198346	0,063775334453042099
1	1	0	1	0	0	1	1181,6918	0,100000001	3,62219334	9,6040063682529677E-007	0,20101409185543078	0,000728111889	0,065528382555963366	-0,002444952057010368	0,065528389697820672
1	1	0	1	0	0	1	1184,0748	0,100000001	3,93656087	1,3526679978188541E-005	0,19416287540528077	0,000764333992	0,065658383026303219	-0,0024498025493462397	0,06565841211644841
1	1	0	1	0	0	1	1469,4624	0,100000001	4,03780222	0,00055021535171940922	0,19807753162284662	0,000799797883	0,081496773307802509	-0,0030407541856911936	0,081496802397947699
1	1	0	1	0	0	1	1829,4624	0,100000001	4,04468775	0,00055755074379344781	0,20071827283621126	0,000811842736	0,10152054048085104	-0,0037878678611589299	0,10152056957099621
1	1	0	1	0	0	1	2189,4623	0,100000001	4,04674768	0,00054917420441388256	0,19770271858338848	0,000800053007	0,12151511063016402	-0,0045338921564152768	0,1215151397203092
1	1	0	1	0	0	1	2549,4623	0,100000001	4,0550828	0,00054900598086416723	0,19764215810396109	0,000801455288	0,14147274265109949	-0,0052785382404380166	0,14147277174124467
1	1	0	1	0	0	1	2909,4623	0,100000001	4,06412363	0,00056466313396559814	0,2032787333628681	0,000826149888	0,1615879696822384	-0,006029064406180192	0,16158799877238358
1	1	0	1	0	0	1	3269,4623	0,100000001	4,06984568	0,00054966191118086374	0,19787829302393709	0,00080533413	0,18155232251223699	-0,0067739612526253005	0,18155235160238218
1	1	0	1	0	0	1	3629,4623	0,100000001	4,08157587	0,00055427780766950714	0,19954001580182736	0,000814437692	0,20148571586520874	-0,0075177029593570803	0,20148574495535392
1	1	0	1	0	0	1	3989,4623	0,100000001	4,09340143	0,0005550867649229865	0,19983124042043686	0,000817989465	0,2214735924183816	-0,0082634775075418035	0,22147362150852678
1	1	0	1	0	0	1	4349,4623	0,100000001	4,10503626	0,00054997291257149645	0,19799025092284499	0,000812757178	0,24154294921849181	-0,0090122921932911155	0,24154297830863699
1	1	0	1	0	0	1	4559,5345	0,100000001	4,11148262	0,00055299103911552166	0,19907677649184886	0,000818500703	0,2531400795789704	-0,0094449967195481754	0,25314010866911558
1	1	0	1	0	0	1	4919,5345	0,100000001	4,12622643	0,00054361258042686515	0,19570053132305568	0,000807504694	0,27310370721232653	-0,010189866507931517	0,27310373630247171
1	1	0	1	0	0	1	5228,5027	0,100000001	4,0138464	7,7993304365211059E-008	0,2339799161690831	0,000939159421	0,29021064050547341	-0,010828149189615261	0,29021066959561856
1	1	0	1	0	0	1	5229,3289	0,100000001	3,94411373	1,6220071663459142E-008	0,14598064865891363	0,000575764279	0,29025631134793338	-0,010829853230152546	0,29025634043807859
1	1	0	1	0	0	1	5237,0663	0,100000001	4,00635052	1,1359572700328298E-007	0,18588391915122486	0,000744716148	0,29068413044022016	-0,010845815735694653	0,29068415953036538
1	1	0	1	0	0	1	5479,5251	0,100000001	4,15058327	0,00056017234450951213	0,20166204646498579	0,000837015104	0,3041721852632935	-0,011349073196026101	0,30417221435343866
1	1	0	1	0	0	1	5839,5251	0,100000001	4,16656685	0,00055653256816416979	0,20035172696479821	0,000834778883	0,32411118653297574	-0,012093024141670269	0,3241112156231209
1	1	0	1	0	0	1	6199,5251	0,100000001	4,18426704	0,00055300411536668742	0,1990814839423255	0,000833010068	0,34403966288009555	-0,012836582388302728	0,3440396919702407
2	1	0	0	0	0	1	7424,5987	4,19985914	4,19956398	0,0047585055690640589	0,14275516880028621	0,000599509454	0,40281508131361638	-0,015029572274447939	0,40281511040376154
3	1	0	1	0	0	1	10804,1924	0	4,14041758	0	0	0	0,4820971717573495	-0,017987693664807923	0,48209720084749472
2	1	0	0	0	0	1	11325,7284	4,19985914	4,19969749	0,0051535410069679949	0,15460623208088739	0,000649299414	0,49993938061502157	-0,018653410466392614	0,49993940970516678
3	1	0	1	0	0	1	14902,3706	0	4,16605186	0	0	0	0,59141882780760192	-0,022066631636572656	0,59141885689774707
2	1	0	0	0	0	1	18226,5039	4,19985914	4,19969749	0,0024862308453351594	0,074586926263093133	0,000313242519	0,64681001045550899	-0,02413335113540321	0,64681003954565414
2	1	0	0	0	0	1	21287,3779	4,19985914	4,19952583	0,0023171679741743075	0,069515040066861261	0,000291930221	0,69058760421471194	-0,025766752018159885	0,69058763330485722
2	1	0	0	0	0	1	24947,3786	4,19985914	4,19956398	0,0021588728307548314	0,064766185706781683	0,000271989731	0,74182681803180531	-0,027678555977531309	0,74182684712195046
3	1	0	1	0	0	1	28934,7822	0	4,17986107	0	0	0	0,79780331721935334	-0,029767114423422323	0,79780334630949862
3	1	0	1	0	0	1	32691,4688	0	4,19454765	0	0	0	0,85782644109336691	-0,032006657877110131	0,85782647018351206
2	1	0	0	0	0	1	35747,3798	4,19985914	4,19956398	0,0020288208617778336	0,060864625739965811	0,000255604886	0,89541321466516851	-0,033409070935028589	0,89541324375531366
2	1	0	0	0	0	1	39287,3804	4,19985914	4,1996212	0,0022723926013369085	0,068171777913127424	0,000286295632	0,9430607413001824	-0,03518686421656185	0,94306077039032755
2	1	0	0	0	0	1	42827,3810	4,19985914	4,19965935	0,0023116667822553494	0,069350003338486029	0,000291246397	0,99169720903163302	-0,037001556220048621	0,99169723812177818
3	1	0	1	0	0	1	46807,3276	0	4,17974663	0	0	0	1,0525050178627974	-0,039270377324507866	1,0525050469529427
3	1	0	1	0	0	1	50687,3816	4,19985914	4,19971657	0	0	0	1,1175534662987717	-0,041697422394223149	1,1175534953889168
2	1	0	0	0	0	1	54347,3822	4,19985914	4,1996212	0,0020397780073500726	0,061193340106520704	0,00025698886	1,1673609690407541	-0,043555807288426182	1,1673609981308992
2	1	0	0	0	0	1	57887,3828	4,19985914	4,1996212	0,0021453018578140509	0,064359055614543437	0,000270283665	1,215400702320667	-0,045348234327208077	1,2154007314108122
2	1	0	0	0	0	1	61427,3834	4,19985914	4,19967842	0,0021766758957333322	0,065300276750368717	0,000274240156	1,263799744461849	-0,047154067662699821	1,2637997735519941
3	1	0	1	0	0	1	65087,3834	0,100000001	4,17457724	0	0	0	1,314693128528835	-0,049052968249121696	1,3146931576189802
3	1	0	1	0	0	1	68705,1489	0	4,18470573	0	0	0	1,3805523510434259	-0,051510264389807514	1,380552380133571
2	1	0	0	0	0	1	72228,0514	4,19985914	4,19958305	0,0021428534105345478	0,064285510388428621	0,000269972341	1,4289712243210408	-0,053316837651662822	1,4289712534111861
2	1	0	0	0	0	1	75648,0496	4,19985914	4,19944954	0,0022571086265408797	0,067713161973024781	0,000284358015	1,4759966275619088	-0,055071418672906701	1,4759966566520541
2	1	0	0	0	0	1	78828,6585	4,19985914	4,19965935	0,0022762037643776278	0,068286015289135488	0,000286777999	1,5182773655768429	-0,056648969855300755	1,5182773946669882
3	1	0	1	0	0	1	82412,1442	0	4,16544151	0	0	0	1,5797875952507459	-0,058943999225817434	1,5797876243408909
2	1	0	0	0	0	1	85849,6294	4,19985914	4,19964027	0,0022133051316510605	0,066399059005755482	0,000278852152	1,6312102728903984	-0,060862648467078285	1,6312103019805437
2	1	0	0	0	0	1	88310,3880	4,19985914	4,19967842	0,0022557744996137402	0,06767313819263488	0,000284205424	1,6607641741317309	-0,061965344258035226	1,6607642032218762
3	1	0	1	0	0	1	91954,9370	0	4,1621418	0	0	0	1,7146724502474054	-0,063976734520359155	1,7146724793375507
2	1	0	0	0	0	1	92781,8526	4,19985914	4,19960213	0,0016272463515935878	0,064536149319083034	0,000271026161	1,7274660658823139	-0,064454081520896755	1,7274660949724592