File: Experimentelles/Rohdaten/Batterietests/AlteZelle/Studenten_Batterietests/S vs Li GCPL 300µm/ECLab-Export/S vs Li GCPL 300µm_02_GCPL_C06_loop0.mpt
EC-Lab ASCII FILE
Nb header lines : 3
mode	ox/red	error	control changes	Ns changes	counter inc.	Ns	time/s	control/V/mA	Ewe/V	dq/mA.h	<I>/mA	P/W	(Q-Qo)/mA.h	x	Capacity/mA.h
1	0	0	1	1	0	1	3600,00	-0,200000003	2,35106134	0	0	0	0	0	0
1	0	0	1	0	0	1	4800,00	-0,200000003	2,32027936	-0,00055589479671170317	-0,20012212923913046	0,000464339246	-0,066704493429951949	0,0024888343350167699	0,066704493429951949
1	0	0	1	0	0	1	6000,00	-0,200000003	2,30888844	-0,0005558894856356912	-0,20012021725174301	0,000462055265	-0,13341134767815613	0,0049777567553366848	0,13341134767815613
1	0	0	1	0	0	1	7200,00	-0,200000003	2,29806924	-0,00055587937939663725	-0,20011657900563955	0,000459881761	-0,20011730629173398	0,0074666457583244979	0,20011730629173398
1	0	0	1	0	0	1	8400,00	-0,200000003	2,28702116	-0,00055588504568073478	-0,20011861886793936	0,000457675516	-0,26682355780907453	0,0099555456899455078	0,26682355780907453
1	0	0	1	0	0	1	9600,00	-0,200000003	2,27425885	-0,00055588864561915398	-0,20011991484578598	0,000455124478	-0,33353001388843354	0,012444453254050466	0,33353001388843354
1	0	0	1	0	0	1	10800,00	-0,200000003	2,25871539	-0,00055588154126207034	-0,2001173572772049	0,000452008157	-0,40023573801219539	0,014933333507907968	0,40023573801219539
1	0	0	1	0	0	1	12000,00	-0,200000003	2,23747683	-0,00055588829811082944	-0,20011978974278762	0,000447763392	-0,46694088757609344	0,017422192324164448	0,46694088757609344
1	0	0	1	0	0	1	13200,00	-0,200000003	2,2078948	-0,00055588541146781715	-0,20011875055129062	0,000441841141	-0,53364670261497491	0,019911075970187302	0,53364670261497491
1	0	0	1	0	0	1	14400,00	-0,200000003	2,17017937	-0,0005558814279735088	-0,20011731649332224	0,000434290472	-0,60035287421155469	0,022399972919857277	0,60035287421155469
1	0	0	1	0	0	1	15600,00	-0,200000003	2,12598753	-0,0005558814879183968	-0,20011733807348221	0,000425446953	-0,66705819436963699	0,024888838101212134	0,66705819436963699
1	0	0	1	0	0	1	16800,00	-0,200000003	2,08438611	-0,00055587719260404512	-0,20011579176029683	0,000417118572	-0,73376399020081139	0,027377721030569613	0,73376399020081139
1	0	0	1	0	0	1	18000,00	-0,200000003	2,08629084	-0,00055587647904041741	-0,20011553487738774	0,000417499221	-0,80046913314723059	0,029866579599919059	0,80046913314723059
1	0	0	1	0	0	1	19200,00	-0,200000003	2,08684325	-0,00055587735893246195	-0,20011585163852762	0,000417610427	-0,86717425103357274	0,032355437234243341	0,86717425103357274
1	0	0	1	0	0	1	20400,00	-0,200000003	2,08653855	-0,00055588193794919386	-0,20011750008457104	0,000417552888	-0,9338796220648151	0,034844304313744205	0,9338796220648151
1	0	0	1	0	0	1	21600,00	-0,200000003	2,08478618	-0,00055587499969287053	-0,20011500231226442	0,000417196978	-1,000584902819057	0,0373331680248888	1,000584902819057
1	0	0	1	0	0	1	22800,00	-0,200000003	2,08263373	-0,00055586848892685446	-0,20011265843647024	0,000416761381	-1,0672901520449312	0,039822030559667603	1,0672901520449312
1	0	0	1	0	0	1	24000,00	-0,200000003	2,07947159	-0,00055587327414502701	-0,20011438111503325	0,000416132156	-1,1339951800082568	0,042310884838843238	1,1339951800082568
1	0	0	1	0	0	1	25200,00	-0,200000003	2,07571912	-0,00055588323529147443	-0,20011796712779776	0,000415388698	-1,2007006642461722	0,044799756142237274	1,2007006642461722
1	0	0	1	0	0	1	26400,00	-0,200000003	2,07137609	-0,00055587005817393459	-0,20011322336542598	0,000414509734	-1,2674058129833278	0,047288614927646886	1,2674058129833278
1	0	0	1	0	0	1	27600,00	-0,200000003	2,06613779	-0,0005558663313430217	-0,20011188170628109	0,000413458707	-1,3341099268073288	0,049777435099055245	1,3341099268073288
1	0	0	1	0	0	1	28800,00	-0,200000003	2,06093764	-0,00055587929805864883	-0,20011654972396336	0,000412427733	-1,4008147837533944	0,052266282997346963	1,4008147837533944
1	0	0	1	0	0	1	30000,00	-0,200000003	2,05440426	-0,00055588252939697773	-0,20011771300577584	0,000411122688	-1,4675200734349853	0,05475514704158295	1,4675200734349853
1	0	0	1	0	0	1	31200,00	-0,200000003	2,04625154	-0,00055588103895882771	-0,20011717644803533	0,00040949008	-1,5342254109826333	0,057244012871765888	1,5342254109826333
1	0	0	1	0	0	1	32400,00	-0,200000003	2,03587031	-0,00055587576766726054	-0,20011527878304816	0,000407408748	-1,6009302753657427	0,059732861047543718	1,6009302753657427
1	0	0	1	0	0	1	33600,00	-0,200000003	2,02289844	-0,00055587183429383571	-0,20011385997303978	0,000404810009	-1,6676349873151091	0,062221703535813645	1,6676349873151091
1	0	0	1	0	0	1	34800,00	-0,200000003	2,0054884	-0,00055587233139077824	-0,20011403892793872	0,000401326397	-1,7343396258394006	0,064710543284495296	1,7343396258394006
1	0	0	1	0	0	1	36000,00	-0,200000003	1,97996366	-0,00055586252142323386	-0,20011050733962934	0,000396211544	-1,8010434089993862	0,067199351118384653	1,8010434089993862
1	0	0	1	0	0	1	37200,00	-0,200000003	1,94377196	-0,0005558550465678176	-0,20010781639168445	0,000388963963	-1,8677467021698256	0,069688140670105254	1,8677467021698256
1	0	0	1	0	0	1	38400,00	-0,200000003	1,90028489	-0,00055585731589049107	-0,20010863334784541	0,000380263402	-1,934450217486137	0,072176938510387008	1,934450217486137
1	0	0	1	0	0	1	39600,00	-0,200000003	1,85235953	-0,0005558703586210807	-0,20011332873084893	0,000370681839	-2,0011539785660419	0,074665745520438861	2,0011539785660419
1	1	0	0	0	0	2	40790,00	0,200000003	2,26069641	0,00055533203729407654	0,19991953305348838	0,00045195737	-1,9350688674892861	0,072200021173788275	0,066085111076755635
1	1	0	0	0	0	2	41990,00	0,200000003	2,24743891	0,00055533602445407053	0,19992096843108355	0,000449310173	-1,8684283035691645	0,069713572134737421	0,13272567499687688
1	1	0	0	0	0	2	43190,00	0,200000003	2,24437213	0,00055532937607500288	0,19991857501462368	0,000448691688	-1,8017878529661443	0,067227127323699968	0,19936612559989674
1	1	0	0	0	0	2	44390,00	0,200000003	2,24526739	0,0005553354333473577	0,19992075563266733	0,000448875566	-1,7351474953686448	0,064740685982823539	0,266006483197396
1	1	0	0	0	0	2	45590,00	0,200000003	2,24806762	0,0005553355403029257	0,19992079413667174	0,000449435465	-1,6685067877869299	0,062254231583565478	0,33264719077911046
1	1	0	0	0	0	2	46790,00	0,200000003	2,25073433	0,00055534206539226906	0,19992314316883101	0,000449973886	-1,6018658965700682	0,059767770332633178	0,39928808199597126
1	1	0	0	0	0	2	47990,00	0,200000003	2,25395346	0,00055534413318915494	0,19992388757570854	0,000450619147	-1,5352249130311101	0,057281305637039347	0,46592906553492928
1	1	0	0	0	0	2	49190,00	0,200000003	2,25740123	0,00055534154861917094	0,199922957130516	0,000451306318	-1,4685838546155811	0,054794838147699994	0,53257012395045722
1	1	0	0	0	0	2	50390,00	0,200000003	2,2610774	0,00055534160336107021	0,19992297683759971	0,000452041335	-1,4019432837052773	0,052308388847836032	0,59921069486076006
1	1	0	0	0	0	2	51590,00	0,200000003	2,2650013	0,00055533238440420896	0,19991965801313584	0,000452818291	-1,3353029585912779	0,049821948718962669	0,66585101997475904
1	1	0	0	0	0	2	52790,00	0,200000003	2,26896334	0,00055533755148450534	0,19992151816203907	0,000453614601	-1,2686628810494779	0,047335517827340941	0,73249109751655962
1	1	0	0	0	0	2	53990,00	0,200000003	2,27366829	0,00055533669006907277	0,19992120805248394	0,000454554509	-1,2020225864146019	0,044849078835684646	0,79913139215143578
1	1	0	0	0	0	2	55190,00	0,200000003	2,27898288	0,00055533557015491853	0,19992080488338915	0,0004556161	-1,135382541319216	0,04236264915468224	0,86577143724682163
1	1	0	0	0	0	2	56390,00	0,200000003	2,28467822	0,00055533590663058886	0,19992092601463027	0,000456754991	-1,0687426797259632	0,039876226320391142	0,93241129884007501
1	1	0	0	0	0	2	57590,00	0,200000003	2,29138327	0,00055533696241262886	0,19992130609616397	0,000458096329	-1,0021023416688235	0,037389785708591821	0,99905163689721498
1	1	0	0	0	0	2	58790,00	0,200000003	2,29905963	0,00055534999676297114	0,1999259984622784	0,0004596418	-0,93546126463524864	0,034903317524588134	1,065692713930791
1	1	0	0	0	0	2	59990,00	0,200000003	2,3072505	0,00055534157111909658	0,19992296523048922	0,000461272371	-0,86882087557972915	0,032416875009970688	1,1323331029863115
1	1	0	0	0	0	2	61190,00	0,200000003	2,3156507	0,000555322356959184	0,1999160481329336	0,000462935743	-0,8021812656175433	0,029930461564373018	1,1989727129484973
1	1	0	0	0	0	2	62390,00	0,200000003	2,3224318	0,00055534727080994182	0,1999250171191897	0,000464312208	-0,73554091582829786	0,027444020514833046	1,2656130627377435
1	1	0	0	0	0	2	63590,00	0,200000003	2,32709861	0,00055533578425563053	0,19992088195964534	0,000465235615	-0,66890040619121165	0,024957573501155222	1,3322535723748299
1	1	0	0	0	0	2	64790,00	0,200000003	2,32875586	0,00055534236992730042	0,19992325280144205	0,000465572433	-0,60226011667934362	0,022471134700645254	1,3988938618866984
1	1	0	0	0	0	2	65990,01	0,200000003	2,32989883	0,00055535353728300992	0,19992332257645574	0,000465801102	-0,53561907015178989	0,019984667654862227	1,4655349084142518
1	1	0	0	0	0	2	67190,03	0,200000003	2,33125114	0,00055537223460359712	0,19993005352540131	0,000466087164	-0,46897653350390067	0,017498145010685997	1,5321774450621411
1	1	0	0	0	0	2	68390,06	0,200000003	2,33269882	0,00055535713807410662	0,1999246181374193	0,000466363912	-0,40233368104772582	0,015011610583278022	1,5988202975183149
1	1	0	0	0	0	2	69590,08	0,200000003	2,33407021	0,00055534773888025018	0,1999212346993159	0,000466630183	-0,33569169248226835	0,012525108388794227	1,6654622860837728
1	1	0	0	0	0	2	70790,10	0,200000003	2,33603215	0,00055534728248086234	0,19992107093872678	0,000467022037	-0,26904989317332374	0,010038613255725379	1,7321040853927178
1	1	0	0	0	0	2	71990,13	0,200000003	2,33826089	0,00055534851624982221	0,19992151452821206	0,000467468664	-0,20240828735782944	0,0075521253421573222	1,7987456912082125
1	1	0	0	0	0	2	73190,15	0,200000003	2,34115624	0,00055534956856817011	0,19992189316914195	0,000468048383	-0,13576719415788416	0,005065656554964617	1,8653867844081578
1	1	0	0	0	0	2	74390,18	0,200000003	2,34389925	0,00055534503912346234	0,19992026334602211	0,000468592945	-0,069126260939756915	0,0025791937369086403	1,9320277176262845
1	1	0	0	0	0	2	75590,20	0,200000003	2,34700394	0,0005553420626256201	0,1999191917628088	0,00046921114	-0,0024852749825251152	9,2728951085764442E-005	1,9986687035835165
1	1	0	0	0	0	2	75600,00	0,200000003	2,34708023	0,00054416404000504147	0,19991744167299002	0,000469222286	-0,0019411109425200736	7,2425459116843226E-005	1,9992128676235216