File: Experimentelles/Rohdaten/Batterietests/AlteZelle/Studenten_Batterietests/S vs Li GCPL 300µm/ECLab-Export/S vs Li GCPL 300µm_02_GCPL_C06_loop3.mpt
EC-Lab ASCII FILE
Nb header lines : 3
mode	ox/red	error	control changes	Ns changes	counter inc.	Ns	time/s	control/V/mA	Ewe/V	dq/mA.h	<I>/mA	P/W	(Q-Qo)/mA.h	x	Capacity/mA.h
1	0	0	1	1	0	1	219600,15	-0,200000003	2,32252717	0	0	0	0	0	0
1	0	0	1	0	0	1	220760,15	-0,200000003	2,2562964	-0,00055585105405251194	-0,2001063481498263	0,000451499218	-0,064475140371082432	0,0024056541749932816	0,064475140371082432
1	0	0	1	0	0	1	221920,15	-0,200000003	2,23073363	-0,00055584915150039725	-0,20010566323117222	0,000446382444	-0,12895394816318054	0,0048114451863955578	0,12895394816318054
1	0	0	1	0	0	1	223080,15	-0,200000003	2,19164658	-0,00055584803913036979	-0,20010526277802499	0,000438560004	-0,19343243482808253	0,0072172242161103872	0,19343243482808253
1	0	0	1	0	0	1	224240,15	-0,200000003	2,13071132	-0,0005558456228143639	-0,20010439290439898	0,000426364684	-0,25791083132490016	0,0096229998815327578	0,25791083132490016
1	0	0	1	0	0	1	225400,15	-0,200000003	2,05632806	-0,00055584089392009715	-0,20010269050272928	0,000411476765	-0,32238870562671526	0,012028756063157483	0,32238870562671526
1	0	0	1	0	0	1	226560,15	-0,200000003	2,02226973	-0,00055585220758782496	-0,20010676342247405	0,000404669845	-0,38686682052857082	0,01443452122189321	0,38686682052857082
1	0	0	1	0	0	1	227720,15	-0,200000003	2,02339363	-0,00055584802785101862	-0,2001052587174592	0,000404891704	-0,45134549718431366	0,016840307340421757	0,45134549718431366
1	0	0	1	0	0	1	228880,15	-0,200000003	2,03181291	-0,00055584765150315238	-0,20010512323224851	0,000406576175	-0,51582389372442637	0,019246083007459526	0,51582389372442637
1	0	0	1	0	0	1	230040,15	-0,200000003	2,03992748	-0,00055585661274856998	-0,20010834928009411	0,000408206513	-0,58030226497277798	0,02165185773082768	0,58030226497277798
1	0	0	1	0	0	1	231200,15	-0,200000003	2,04720402	-0,00055584517695258067	-0,20010423239418211	0,000409654196	-0,64478093116749184	0,024057643459041171	0,64478093116749184
1	0	0	1	0	0	1	232360,15	-0,200000003	2,05307078	-0,00055585171077979936	-0,20010658457161283	0,000410832989	-0,70925941761578739	0,026463422480674122	0,70925941761578739
1	0	0	1	0	0	1	233520,15	-0,200000003	2,05813766	-0,00055585254177202784	-0,20010688372876826	0,000411847519	-0,77373785793687872	0,028869199781239066	0,77373785793687872
1	0	0	1	0	0	1	234680,15	-0,200000003	2,06394744	-0,00055584595011671386	-0,2001045107332265	0,000413005182	-0,8382163221783753	0,03127497797430649	0,8382163221783753
1	0	0	1	0	0	1	235840,16	-0,200000003	2,0688808	-0,00055583935394883155	-0,20010213611316042	0,000413987465	-0,9026950228844329	0,033680764990184614	0,9026950228844329
1	0	0	1	0	0	1	237000,16	-0,200000003	2,07227135	-0,00055585000813255699	-0,20010597161870147	0,000414673879	-0,9671735338266272	0,036086544925717862	0,9671735338266272
1	0	0	1	0	0	1	238160,16	-0,200000003	2,07417631	-0,00055584818678349248	-0,20010531593314086	0,000415053713	-1,0316516885806157	0,038492311571390253	1,0316516885806157
1	0	0	1	0	0	1	239320,16	-0,200000003	2,07522392	-0,00055584880285875667	-0,20010553772020122	0,000415263785	-1,0961301422406222	0,040898089369648051	1,0961301422406222
1	0	0	1	0	0	1	240480,16	-0,200000003	2,07495713	-0,00055584796295894528	-0,20010523535631642	0,000415209797	-1,1606087156335037	0,043303871635300403	1,1606087156335037
1	0	0	1	0	0	1	241640,16	-0,200000003	2,07341433	-0,00055585043122950534	-0,20010612393357901	0,000414902897	-1,2250871002402424	0,045709646857087942	1,2250871002402424
1	0	0	1	0	0	1	242800,16	-0,200000003	2,07029033	-0,00055585269834266765	-0,20010694009418979	0,000414279464	-1,2895655100729064	0,048115423020088678	1,2895655100729064
1	0	0	1	0	0	1	243960,16	-0,200000003	2,06318545	-0,00055585541096909171	-0,20010791663954966	0,00041285975	-1,3540443634715064	0,050521215733130854	1,3540443634715064
1	0	0	1	0	0	1	245120,16	-0,200000003	2,04886103	-0,00055585154826111264	-0,20010652606489472	0,000409990462	-1,4185235282746333	0,052927020065094624	1,4185235282746333
1	0	0	1	0	0	1	246280,16	-0,200000003	2,02453661	-0,00055584744830595123	-0,20010505008126755	0,000405119994	-1,483002709304169	0,055332825002487514	1,483002709304169
1	0	0	1	0	0	1	247440,16	-0,200000003	1,98762095	-0,0005558461926339401	-0,2001045980394143	0,000397732103	-1,5474817772615462	0,057738625721006157	1,5474817772615462
1	0	0	1	0	0	1	248600,16	-0,200000003	1,9324764	-0,00055585177976720858	-0,20010660940474669	0,000386701315	-1,6119604903321635	0,060144413198222618	1,6119604903321635
1	0	0	1	0	0	1	249760,16	-0,200000003	1,86546469	-0,00055586179015619885	-0,2001102131465489	0,000373298535	-1,6764390846316208	0,062550196243927437	1,6764390846316208
1	0	0	1	0	0	1	250920,16	-0,200000003	1,80220556	-0,00055585149674117562	-0,20010650751772032	0,000360633072	-1,7409179471207245	0,064955989296148531	1,7409179471207245
1	0	0	1	0	0	1	252080,16	-0,200000003	1,68374455	-0,000555842061618136	-0,2001031108739575	0,000336922531	-1,8053961064905174	0,067361756114042778	1,8053961064905174
1	1	0	0	0	0	2	253225,42	0,200000003	2,31165051	0,00055535742030292749	0,19992864002778051	0,000462165131	-1,829051590329903	0,068244374021226547	0,019993159565006691
1	1	0	0	0	0	2	254385,42	0,200000003	2,25574398	0,00055536886113385357	0,1999327587262695	0,000450997119	-1,7646290571269898	0,065840682690408742	0,084415692767919002
1	1	0	0	0	0	2	255545,42	0,200000003	2,25039148	0,00055537990481240883	0,19993673444992736	0,000449935935	-1,7002057197507091	0,063436961354801382	0,14883903014419974
1	1	0	0	0	0	2	256705,42	0,200000003	2,25180101	0,00055538627044525414	0,19993902607739312	0,000450222899	-1,6357814833206349	0,061033206474288205	0,21326326657427357
1	1	0	0	0	0	2	257865,42	0,200000003	2,25481057	0,00055537963696651981	0,1999366380254224	0,000450819236	-1,571357432269968	0,058629458510529946	0,27768731762493898
1	1	0	0	0	0	2	259025,42	0,200000003	2,25814414	0,00055537512573103104	0,19993501398090051	0,000451482076	-1,5069336603721702	0,056225720962340557	0,34211108952273555
1	1	0	0	0	0	2	260185,42	0,200000003	2,26138234	0,00055536755959110131	0,199932290170952	0,00045212335	-1,4425106329823834	0,053822011192746067	0,40653411691252262
1	1	0	0	0	0	2	261345,42	0,200000003	2,26524901	0,00055537054126295776	0,19993336357265238	0,00045289885	-1,378087092670611	0,051418282285342656	0,47095765722429453
1	1	0	0	0	0	2	262505,43	0,200000003	2,26900148	0,00055537757451832288	0,19993207714354138	0,000453646178	-1,3136635147172728	0,049014551973481818	0,53538123517763226
1	1	0	0	0	0	2	263665,45	0,200000003	2,27323031	0,00055539701643255021	0,1999390761072089	0,000454507564	-1,2492384436713488	0,046610765952329126	0,59980630622355597
1	1	0	0	0	0	2	264825,48	0,200000003	2,27766848	0,00055539530751274688	0,1999384608986151	0,000455393543	-1,1848134756710206	0,04420698377594615	0,66423127422388365
1	1	0	0	0	0	2	265985,50	0,200000003	2,28204966	0,00055539513611710739	0,19993839920202803	0,000456269365	-1,1203878174659187	0,041803175847095085	0,72865693242898573
1	1	0	0	0	0	2	267145,52	0,200000003	2,28683066	0,00055539025733454368	0,19993664287877814	0,000457221235	-1,0559620486727979	0,039399363792056346	0,79308270122210496
1	1	0	0	0	0	2	268305,54	0,200000003	2,29144025	0,00055537829115821261	0,1999323351382441	0,000458132999	-0,9915367194958967	0,03699556813968983	0,85750803039900518
1	1	0	0	0	0	2	269465,56	0,200000003	2,29658341	0,00055538095710674931	0,19993329485658294	0,000459163479	-0,9271121660176631	0,034591801429683539	0,92193258387723878
1	1	0	0	0	0	2	270625,59	0,200000003	2,30212641	0,00055538390644308595	0,19993435659256541	0,000460274168	-0,86268738567581606	0,032188026255090803	0,98635736421908582
1	1	0	0	0	0	2	271785,61	0,200000003	2,30782175	0,00055538619588398272	0,19993518078472867	0,000461414747	-0,79826273175049882	0,029784255797268768	1,0507820181444026
1	1	0	0	0	0	2	272945,63	0,200000003	2,31325054	0,00055537832232233555	0,1999323463478024	0,000462493597	-0,73383827606176768	0,027380492735920291	1,115206473833132
1	1	0	0	0	0	2	274105,65	0,200000003	2,31885076	0,000555385254126456	0,19993484175389197	0,000463619072	-0,66941373214819725	0,024976726382784445	1,1796310177467035
1	1	0	0	0	0	2	275265,68	0,200000003	2,32302237	0,00055538028322408595	0,19993305226815024	0,000464448938	-0,60498931781224781	0,022572964864363859	1,2440554320826536
1	1	0	0	0	0	2	276425,70	0,200000003	2,32572722	0,00055538357351637542	0,19993423675056736	0,00046499251	-0,54056523891993805	0,02016921586179647	1,3084795109749629
1	1	0	0	0	0	2	277585,72	0,200000003	2,3273654	0,00055539327356798778	0,19993772869725552	0,000465328165	-0,47613992601169389	0,017765420816435424	1,3729048238832078
1	1	0	0	0	0	2	278745,74	0,200000003	2,32833672	0,00055538721846209638	0,19993554889645139	0,000465517282	-0,41171533900920723	0,015361652855594173	1,437329410885696
1	1	0	0	0	0	2	279905,77	0,200000003	2,32978439	0,00055538417766325997	0,19993445423925805	0,000465804158	-0,34729037268190822	0,012957870741634173	1,5017543772129946
1	1	0	0	0	0	2	281065,79	0,200000003	2,33058453	0,00055539189136607789	0,19993723110949382	0,000465970603	-0,28286564845022976	0,010554097660587274	1,5661791014446723
1	1	0	0	0	0	2	282225,81	0,200000003	2,33132744	0,00055539200902895795	0,19993727347197011	0,000466119265	-0,21844026811756528	0,0081503000995304486	1,630604481777336
1	1	0	0	0	0	2	283385,83	0,200000003	2,33267975	0,00055538398029738003	0,19993438318890931	0,000466382888	-0,15401457841862838	0,0057464909956020531	1,695030171476273
1	1	0	0	0	0	2	284545,86	0,200000003	2,333956	0,00055539645337065056	0,19993887340882797	0,000466648547	-0,089589306956490278	0,0033426974966509446	1,7594554429384096
1	1	0	0	0	0	2	285705,88	0,200000003	2,33599424	0,00055539630757520595	0,19993882091882339	0,000467055943	-0,025163797621959994	0,00093889512236106176	1,8238809522729398
1	1	0	0	0	0	2	286865,90	0,200000003	2,33793712	0,00055538478703051802	0,19993467359793706	0,0004674347	0,039261503403217043	-0,0014648994796267766	1,8883062532981171
1	1	0	0	0	0	2	288025,92	0,200000003	2,34039426	0,00055538151916613184	0,19993349719871965	0,000467923208	0,10368635920685326	-0,00386867746980032	1,9527311091017533
1	1	0	0	0	0	2	288865,40	0,200000003	2,34245157	0,00052571341786368019	0,19993764022167142	0,000468344253	0,1503097367077896	-0,0056082583701579994	1,9993544866026899