File: Experimentelles/Ausgewaehlte_Daten/LiCoO2/PEIS/LiCoO2_Korrosion_07_PEIS_C01.mpt
EC-Lab ASCII FILE
Nb header lines : 62

Potentio Electrochemical Impedance Spectroscopy

Run on channel : 1 (SN 6985)
Grouped channel(s) : 1
User :
CE vs. WE compliance from -10 V to 10 V
Electrode connection : standard
Ewe ctrl range : min = 0,00 V, max = 5,00 V
Acquisition started on : 09.04.2015 14:23:31
Saved on :
	File : LiCoO2_Korrosion_07_PEIS_C01.mpr
	Directory : C:\Gielisch\AlteZelle\150904_LiCoO2_Korrosion\
	Host : 192.168.0.2
Device : VMP3 (SN 0324)
Address : 192.168.0.1
EC-Lab for windows v10.33 (software)
Internet server v10.33 (firmware)
Command interpretor v10.32 (firmware)
Electrode material :
Initial state :
Electrolyte :
Comments :
Electrode surface area : 0,001 cm²
Characteristic mass : 0,001 g
Equivalent Weight : 0,000 g/eq.
Density : 0,000 g/cm3
Multi Sine          0
E (V)               0,0000
vs.                 Eoc
tE (h:m:s)          0:00:0,0000
record              0
dI                  0,000
unit dI             mA
dt (s)              0,000
fi                  1,000
unit fi             MHz
ff                  1,000
unit ff             Hz
Sel Nd              1
Nd                  6
Nt                  51
Log                 1
Va (mV)             10,0
pw                  0,10
Na                  2
E range min (V)     0,000
E range max (V)     5,000
I Range             Auto
Bandwidth           5
corr                0
nc cycles           0
goto Ns'            0
nr cycles           0
inc. cycle          0

Number of loops : 1
Loop 0 from point number 0 to 36

freq/Hz	Re(Z)/Ohm	-Im(Z)/Ohm	|Z|/Ohm	Phase(Z)/deg	time/s	<Ewe>/V	<I>/mA	Cs/µF	Cp/µF	cycle number	I Range	|Ewe|/V	|I|/A	Re(Y)/Ohm-1	Im(Y)/Ohm-1	|Y|/Ohm-1	Phase(Y)/deg
1000024,25	1,07370985	-4,30739498	4,43920088	76,0030594	57599,5908	1,5046097	-0,00836965255	-0,0369483382	-0,0347868204	1	9	0,000473799213	0,000106730738	0,0544850528	-0,218577325	0,225265771	-76,0030594
681286,5	14,6180992	-1,62919223	14,7086058	6,35939121	57601,9748	1,50522196	-0,0661535859	-0,143389717	-0,00175921794	1	10	0,00202150689	0,000137437019	0,0675690621	-0,00753059611	0,0679874122	-6,35939121
464160,125	14,6596193	-0,603090048	14,67202	2,35579371	57603,2068	1,50539303	-0,0647208467	-0,568551958	-0,000960626698	1	10	0,00643279916	0,000438439922	0,0680993423	-0,0028015757	0,0681569427	-2,35579371
316223,094	14,7529669	0,181369722	14,7540817	-0,70434618	57603,5208	1,50544477	-0,0636048391	2,77499223	0,000419340649	1	10	0,0104618305	0,000709080428	0,0677727386	0,000833183061	0,0677778572	0,70434618
215441,859	14,9249897	0,855215847	14,9494724	-3,27951527	57603,9368	1,50554883	-0,0619541258	0,863802254	0,0028269235	1	10	0,0101986928	0,000682210899	0,0667824447	0,00382669619	0,0668919906	3,27951527
146777,328	15,1948566	1,49485242	15,2682104	-5,61861277	57604,3538	1,50559413	-0,0628111586	0,725375473	0,00695317565	1	10	0,0101374816	0,000663960062	0,0651808977	0,00641242089	0,0654955581	5,61861277
100024,406	15,5688705	2,16753244	15,7190304	-7,92589855	57604,7698	1,50555134	-0,0637389794	0,734088719	0,0139581626	1	10	0,0101130567	0,000643363921	0,0630094334	0,00877231266	0,063617155	7,92589855
68127,4297	16,0046291	3,07567716	16,2974834	-10,8781519	57605,0838	1,50562668	-0,0618162528	0,759551823	0,0270519014	1	10	0,0105448077	0,000647020584	0,0602565892	0,0115797622	0,0613591671	10,8781519
46411,125	16,6609459	4,09259987	17,1562386	-13,8009043	57605,3978	1,50563371	-0,0620118827	0,837912679	0,0476818606	1	10	0,0104291886	0,000607894792	0,0566050969	0,0139044924	0,0582878366	13,8009043
31628,4121	17,6022148	5,29347277	18,3809357	-16,7374859	57605,7118	1,50562823	-0,0616951548	0,950609267	0,0788402855	1	10	0,0102616381	0,000558276137	0,052099321	0,0156677067	0,0544041954	16,7374859
21545,4082	19,013979	6,64302254	20,1410313	-19,2581749	57606,0258	1,50563276	-0,0614436381	1,11198688	0,120967224	1	10	0,0100834733	0,000500643335	0,0468715802	0,0163757913	0,0496498905	19,2581749
14672,8496	20,9423599	8,00239372	22,4192047	-20,9126167	57606,2378	1,50563455	-0,0617193803	1,35545695	0,172697157	1	10	0,0103914291	0,000463505683	0,0416663252	0,0159213357	0,0446046144	20,9126167
10015,2705	23,4392338	9,10149479	25,1442814	-21,2212772	57606,4900	1,50567722	-0,0595358163	1,74600196	0,228766128	1	10	0,0104579888	0,000415919174	0,0370736159	0,0143957483	0,0397704728	21,2212772
6856,00244	26,236845	9,77755737	27,9995117	-20,4386692	57606,8404	1,50567448	-0,061016988	2,37420821	0,289520025	1	10	0,0104389535	0,000372826267	0,0334665328	0,0124718091	0,0357149094	20,4386692
4642,42725	29,2771015	9,88560295	30,9010334	-18,6575871	57607,2916	1,50567675	-0,061056111	3,46794224	0,354921401	1	10	0,00977388304	0,000316296326	0,0306607001	0,0103527838	0,032361377	18,6575871
3160,05566	32,0873337	9,7408123	33,5332718	-16,886816	57607,7426	1,5056721	-0,0606713854	5,17047215	0,436283439	1	10	0,0100804577	0,000300610613	0,0285352543	0,00866250135	0,0298211277	16,886816
2152,93286	34,9485626	9,20057487	36,1393509	-14,7490597	57608,4391	1,50567663	-0,0639433116	8,03479195	0,52076751	1	11	0,0103873946	0,000287426141	0,0267589223	0,0070445668	0,0276706684	14,7490597
1468,58972	37,3827896	8,37572861	38,3096046	-12,6287308	57608,8901	1,50567067	-0,0637414455	12,9388924	0,618481815	1	11	0,0103943748	0,000271325553	0,0254716091	0,00570699153	0,0261031147	12,6287308
999,040405	39,4712143	7,38189554	40,1555634	-10,5930691	57609,3411	1,50567222	-0,063606225	21,580883	0,729312301	1	11	0,010382669	0,000258561166	0,024478741	0,00457800692	0,0249031503	10,5930691
681,089661	41,1117935	6,35738564	41,6004333	-8,79039574	57609,7916	1,50567102	-0,0634120032	36,7567635	0,858417749	1	11	0,010366614	0,000249194854	0,0237558577	0,00367352366	0,0240382105	8,79039574
464,553894	42,4344139	5,4212389	42,7793083	-7,28042507	57610,2431	1,50567079	-0,0632057637	63,1954002	1,0148809	1	11	0,0103637446	0,000242260678	0,0231873263	0,00296231359	0,0233757868	7,28042507
316,315765	43,4415207	4,65330029	43,690033	-6,11400604	57610,6921	1,50567079	-0,0629793033	108,128006	1,22657931	1	11	0,0103568789	0,00023705358	0,0227583237	0,00243779016	0,0228885151	6,11400604
215,344498	44,2668762	4,05614758	44,4523201	-5,23535872	57611,1426	1,50566971	-0,0628453791	182,210159	1,51708961	1	11	0,0103532551	0,000232906968	0,0224021655	0,00205269712	0,022496013	5,23535872
146,737289	44,9295006	3,66209173	45,0784988	-4,65973568	57611,5896	1,50567424	-0,0626519993	296,176361	1,95465434	1	11	0,0103502087	0,000229604106	0,0221102014	0,00180214748	0,0221835244	4,65973568
99,9040375	45,4603233	3,3966608	45,5870399	-4,27303123	57612,0411	1,50567305	-0,0623785704	469,013062	2,60379314	1	11	0,0103456639	0,000226943099	0,0218750834	0,00163444155	0,021936059	4,27303123
68,1888962	45,9213791	3,42542028	46,0489578	-4,26597214	57612,5032	1,50566983	-0,062208306	681,385071	3,77034163	1	11	0,010347262	0,000224701333	0,021655852	0,00161537819	0,0217160173	4,26597214
46,3802681	46,3277664	3,69970918	46,4752617	-4,56591845	57612,9420	1,50566924	-0,0620812811	927,511414	5,87774515	1	11	0,0103472834	0,00022264068	0,0214485377	0,00171286811	0,0215168241	4,56591845
31,5869217	46,7077446	4,35877657	46,9106865	-5,33141327	57613,3719	1,50566721	-0,0619570501	1155,97449	9,98007679	1	11	0,0103481058	0,000220591653	0,0212248843	0,00198071054	0,0213171039	5,33141327
21,5220375	47,0922928	5,46241093	47,4080353	-6,61638355	57613,7938	1,50566852	-0,0615279824	1353,79346	17,9728603	1	11	0,0103473403	0,00021826131	0,0209529847	0,00243041501	0,021093471	6,61638355
14,6851501	47,5686874	7,15487957	48,1037674	-8,55382538	57614,2542	1,50567067	-0,0611992814	1514,74463	33,5108871	1	11	0,0103462618	0,000215082153	0,020557154	0,00309203332	0,0207883921	8,55382538
9,9904108	48,385807	9,63694191	49,3361626	-11,2641315	57614,7051	1,50567222	-0,061142996	1653,09399	63,0732613	1	11	0,0103497673	0,000209780555	0,0198786668	0,00395920966	0,0202691071	11,2641315
6,81718969	49,5300827	12,9840965	51,2036705	-14,6893091	57615,0446	1,50566876	-0,0617150217	1798,05505	115,617691	1	11	0,0103510832	0,000202155104	0,0188915171	0,00495232968	0,0195298493	14,6893091
4,63925123	50,7817917	17,5508289	53,7291527	-19,0657978	57615,5295	1,5056721	-0,0612697415	1954,67517	208,569061	1	11	0,0103488099	0,000192610707	0,017590899	0,00607963745	0,0186118707	19,0657978
3,16039586	53,35215	24,1315479	58,5558167	-24,3375683	57616,2234	1,50568151	-0,0604704358	2086,86084	354,4245	1	11	0,0103462916	0,000176691101	0,0155600822	0,00703793252	0,0170777235	24,3375683
2,1522038	55,7472191	31,8425636	64,2004776	-29,7348156	57617,7378	1,50568104	-0,0606517233	2322,35547	571,305298	1	12	0,0103480229	0,000161182965	0,0135252932	0,00772558711	0,015576208	29,7348156
1,46630979	60,3378258	43,0383224	74,1144409	-35,499855	57619,1991	1,50567925	-0,0605542585	2521,96533	850,440796	1	12	0,0103490511	0,000139636089	0,010984594	0,00783519261	0,0134926476	35,499855
0,998529792	64,6139221	57,2348251	86,3179245	-41,5344315	57621,3310	1,50568116	-0,059642598	2784,83032	1224,38354	1	12	0,0103469882	0,000119870681	0,00867209677	0,00768171856	0,0115850791	41,5344315