File: Experimentelles/Rohdaten/Batteriemessungen/150123_Batterietests/LiCoO2 vs Li 200µm IS + GCPL/ECLab-Export/LiCoO2 vs Li 200µm IS + GCPL_07_OCV_C03.mpt
EC-Lab ASCII FILE
Nb header lines : 46

Open Circuit Voltage

Run on channel : 3 (SN 6987)
Grouped channel(s) : 3
User :
CE vs. WE compliance from -10 V to 10 V
Electrode connection : standard
Ewe ctrl range : min = 0,00 V, max = 5,00 V
Acquisition started on : 01.23.2015 14:58:37
Saved on :
	File : LiCoO2 vs Li 200µm IS + GCPL_07_OCV_C03.mpr
	Directory : C:\Hupfer\Studenten Batterietests\LiCoO2 vs Li 200µm IS + GCPL\
	Host : 192.168.0.2
Device : VMP3 (SN 0324)
Address : 192.168.0.1
EC-Lab for windows v10.33 (software)
Internet server v10.33 (firmware)
Command interpretor v10.32 (firmware)
Electrode material : LiCoO2 vs Li
Initial state :
Electrolyte : LP30
Comments : 200µm
Mass of active material : 0,001 mg
 at x = 0,000
Molecular weight of active material (at x = 0) : 0,001 g/mol
Atomic weight of intercalated ion : 0,001 g/mol
Acquisition started at : xo = 0,000
Number of e- transfered per intercalated ion : 1
for DX = 1, DQ = 26,801 mA.h
Battery capacity : 0,000 A.h
Electrode surface area : 0,001 cm²
Characteristic mass : 0,001 g
tR (h:m:s)          1:00:0,0000
dER/dt (mV/h)       0,0
dER (mV)            0,00
dtR (s)             60,0000
E range min (V)     0,000
E range max (V)     5,000

Number of loops : 1
Loop 0 from point number 0 to 60

mode	error	time/s	Ewe/V
3	0	71443,1414	4,1689496
3	0	71503,1416	4,0649972
3	0	71563,1418	4,04616261
3	0	71623,1420	4,03346586
3	0	71683,1422	4,02393436
3	0	71743,1424	4,01623249
3	0	71803,1425	4,00982714
3	0	71863,1427	4,00447035
3	0	71923,1429	3,99979949
3	0	71983,1431	3,99585342
3	0	72043,1433	3,99223137
3	0	72103,1435	3,98906684
3	0	72163,1437	3,98609281
3	0	72223,1438	3,98340487
3	0	72283,1440	3,98106003
3	0	72343,1442	3,97875333
3	0	72403,1444	3,97663736
3	0	72463,1446	3,97473097
3	0	72523,1448	3,97312951
3	0	72583,1450	3,97133756
3	0	72643,1451	3,96948838
3	0	72703,1453	3,96805859
3	0	72763,1455	3,96670508
3	0	72823,1457	3,9654088
3	0	72883,1459	3,96397901
3	0	72943,1461	3,96277809
3	0	73003,1463	3,96176767
3	0	73063,1464	3,96054769
3	0	73123,1466	3,95946097
3	0	73183,1468	3,9584887
3	0	73243,1470	3,95759273
3	0	73303,1472	3,95662045
3	0	73363,1474	3,9557817
3	0	73423,1476	3,95490479
3	0	73483,1477	3,95393252
3	0	73543,1479	3,95317006
3	0	73603,1481	3,95231199
3	0	73663,1483	3,95158768
3	0	73723,1485	3,95078707
3	0	73783,1487	3,95013881
3	0	73843,1489	3,94945264
3	0	73903,1490	3,94870901
3	0	73963,1492	3,94815612
3	0	74023,1494	3,94754624
3	0	74083,1496	3,94699335
3	0	74143,1498	3,94611645
3	0	74203,1500	3,94533491
3	0	74263,1502	3,94483924
3	0	74323,1503	3,94422913
3	0	74383,1505	3,94373345
3	0	74443,1507	3,94312334
3	0	74503,1509	3,94255161
3	0	74563,1511	3,94184613
3	0	74623,1513	3,94117904
3	0	74683,1515	3,94075942
3	0	74743,1516	3,94028306
3	0	74803,1518	3,93969202
3	0	74863,1520	3,93913913
3	0	74923,1522	3,93862438
3	0	74983,1524	3,938205
3	0	75043,1406	3,93788099