File: Experimentelles/Rohdaten/Batteriemessungen/150123_Batterietests/LiCoO2 vs Li 200µm IS + GCPL/ECLab-Export/LiCoO2 vs Li 200µm IS + GCPL_01_OCV_C03.mpt
EC-Lab ASCII FILE
Nb header lines : 46

Open Circuit Voltage

Run on channel : 3 (SN 6987)
Grouped channel(s) : 3
User :
CE vs. WE compliance from -10 V to 10 V
Electrode connection : standard
Ewe ctrl range : min = 0,00 V, max = 5,00 V
Acquisition started on : 01.23.2015 14:58:37
Saved on :
	File : LiCoO2 vs Li 200µm IS + GCPL_01_OCV_C03.mpr
	Directory : C:\Hupfer\Studenten Batterietests\LiCoO2 vs Li 200µm IS + GCPL\
	Host : 192.168.0.2
Device : VMP3 (SN 0324)
Address : 192.168.0.1
EC-Lab for windows v10.33 (software)
Internet server v10.33 (firmware)
Command interpretor v10.32 (firmware)
Electrode material : LiCoO2 vs Li
Initial state :
Electrolyte : LP30
Comments : 200µm
Mass of active material : 0,001 mg
 at x = 0,000
Molecular weight of active material (at x = 0) : 0,001 g/mol
Atomic weight of intercalated ion : 0,001 g/mol
Acquisition started at : xo = 0,000
Number of e- transfered per intercalated ion : 1
for DX = 1, DQ = 26,801 mA.h
Battery capacity : 0,000 A.h
Electrode surface area : 0,001 cm²
Characteristic mass : 0,001 g
tR (h:m:s)          1:00:0,0000
dER/dt (mV/h)       0,0
dER (mV)            0,00
dtR (s)             5,0000
E range min (V)     0,000
E range max (V)     5,000

Number of loops : 1
Loop 0 from point number 0 to 720

mode	error	time/s	Ewe/V
3	1	0,0000	2,85817289
3	0	15,0000	2,8621192
3	0	30,0000	2,86719012
3	0	45,0000	2,86799073
3	0	60,0000	2,86686587
3	0	75,0000	2,86568403
3	0	90,0000	2,8583827
3	0	105,0000	2,85628557
3	0	120,0000	2,85828733
3	0	135,0000	2,8595264
3	0	150,0000	2,86000299
3	0	165,0000	2,86101341
3	0	180,0000	2,8649404
3	0	195,0000	2,866256
3	0	210,0000	2,86452103
3	0	225,0000	2,86375856
3	0	240,0000	2,86124206
3	0	255,0000	2,85771537
3	0	270,0000	2,85609508
3	0	285,0000	2,85599971
3	0	300,0000	2,85887837
3	0	315,0000	2,85632372
3	0	330,0000	2,85558033
3	0	345,0000	2,85504651
3	0	360,0000	2,85500836
3	0	375,0000	2,85474157
3	0	390,0000	2,85456991
3	0	405,0000	2,85727692
3	0	420,0000	2,86055589
3	0	435,0000	2,86099434
3	0	450,0000	2,86476898
3	0	465,0000	2,86303425
3	0	480,0000	2,86438775
3	0	495,0000	2,86707568
3	0	510,0000	2,87121248
3	0	525,0000	2,86465454
3	0	540,0000	2,86858177
3	0	555,0000	2,86882949
3	0	570,0000	2,86879134
3	0	585,0000	2,87195587
3	0	600,0000	2,87557793
3	0	615,0000	2,87052608
3	0	630,0000	2,8708694
3	0	645,0000	2,87132692
3	0	660,0000	2,87531114
3	0	675,0000	2,87327123
3	0	690,0000	2,87510133
3	0	705,0000	2,87498713
3	0	720,0000	2,87411022
3	0	735,0000	2,87367153
3	0	750,0000	2,87653112
3	0	765,0000	2,87836123
3	0	780,0000	2,8765502
3	0	795,0000	2,87304258
3	0	810,0000	2,87378597
3	0	825,0000	2,87399578
3	0	840,0000	2,87851381
3	0	855,0000	2,88448071
3	0	870,0000	2,88490009
3	0	885,0000	2,88348937
3	0	900,0000	2,88024855
3	0	915,0000	2,88301277
3	0	930,0000	2,88190722
3	0	945,0000	2,8781898
3	0	960,0000	2,87473917
3	0	975,0000	2,87433887
3	0	990,0000	2,87531114
3	0	1005,0000	2,87605453
3	0	1020,0000	2,87399578
3	0	1035,0000	2,87144113
3	0	1050,0000	2,87239432
3	0	1065,0000	2,87277555
3	0	1080,0000	2,87409115
3	0	1095,0000	2,8736527
3	0	1110,0000	2,87176538
3	0	1125,0000	2,87046885
3	0	1140,0000	2,86907721
3	0	1155,0000	2,87077403
3	0	1170,0000	2,8678
3	0	1185,0000	2,86654186
3	0	1200,0000	2,86352968
3	0	1215,0000	2,86440682
3	0	1230,0000	2,86400628
3	0	1245,0000	2,86787629
3	0	1260,0000	2,86942053
3	0	1275,0000	2,86547422
3	0	1290,0000	2,86635113
3	0	1305,0000	2,86572218
3	0	1320,0000	2,86499763
3	0	1335,0000	2,86524558
3	0	1350,0000	2,86446381
3	0	1365,0000	2,86373949
3	0	1380,0000	2,86370134
3	0	1395,0000	2,86372042
3	0	1410,0000	2,86368227
3	0	1425,0000	2,86278629
3	0	1440,0000	2,86316752
3	0	1455,0000	2,86263371
3	0	1470,0000	2,86288166
3	0	1485,0000	2,86244321
3	0	1500,0000	2,86324382
3	0	1515,0000	2,86250043
3	0	1530,0000	2,86272907
3	0	1545,0000	2,8631103
3	0	1560,0000	2,86354876
3	0	1575,0000	2,86421609
3	0	1590,0000	2,86560774
3	0	1605,0000	2,86320567
3	0	1620,0000	2,86503577
3	0	1635,0000	2,87207031
3	0	1650,0000	2,87008762
3	0	1665,0000	2,87043095
3	0	1680,0000	2,87142205
3	0	1695,0000	2,86972547
3	0	1710,0000	2,86789536
3	0	1725,0000	2,8672471
3	0	1740,0000	2,86696124
3	0	1755,0000	2,86610341
3	0	1770,0000	2,86553144
3	0	1785,0000	2,86560774
3	0	1800,0000	2,86726618
3	0	1815,0000	2,86787629
3	0	1830,0000	2,86736155
3	0	1845,0000	2,86312938
3	0	1860,0000	2,86101341
3	0	1875,0000	2,86025095
3	0	1890,0000	2,86314845
3	0	1905,0000	2,86341548
3	0	1920,0000	2,86250043
3	0	1935,0000	2,86067033
3	0	1950,0000	2,86206198
3	0	1965,0000	2,86276722
3	0	1979,9999	2,85868764
3	0	1994,9999	2,85935497
3	0	2009,9999	2,85784888
3	0	2024,9999	2,85840178
3	0	2039,9999	2,85758185
3	0	2054,9999	2,8620429
3	0	2069,9999	2,86019373
3	0	2084,9999	2,85891652
3	0	2099,9999	2,85832548
3	0	2114,9999	2,85843992
3	0	2129,9999	2,85855412
3	0	2144,9999	2,8634727
3	0	2159,9999	2,86741877
3	0	2174,9999	2,86221433
3	0	2189,9999	2,86303425
3	0	2204,9999	2,86154723
3	0	2219,9999	2,8634727
3	0	2234,9999	2,86219525
3	0	2249,9999	2,86415887
3	0	2264,9999	2,86555052
3	0	2279,9999	2,86661816
3	0	2294,9999	2,86842918
3	0	2309,9999	2,8672471
3	0	2324,9999	2,86295795
3	0	2339,9999	2,86343455
3	0	2354,9999	2,86516929
3	0	2369,9999	2,86545515
3	0	2384,9999	2,86558867
3	0	2399,9999	2,86604619
3	0	2414,9999	2,86583638
3	0	2429,9999	2,86707568
3	0	2444,9999	2,86551237
3	0	2459,9999	2,86671352
3	0	2474,9999	2,8661797
3	0	2489,9999	2,86499763
3	0	2504,9999	2,86497855
3	0	2519,9999	2,86574125
3	0	2534,9999	2,86469269
3	0	2549,9999	2,86398745
3	0	2564,9999	2,8631866
3	0	2579,9999	2,8631103
3	0	2594,9999	2,86166167
3	0	2609,9999	2,86171865
3	0	2624,9999	2,86145186
3	0	2639,9999	2,86067033
3	0	2654,9999	2,86309123
3	0	2669,9999	2,86160445
3	0	2684,9999	2,8631103
3	0	2699,9999	2,86339641
3	0	2714,9999	2,86633205
3	0	2729,9999	2,8654933
3	0	2744,9999	2,86600804
3	0	2759,9999	2,86528373
3	0	2774,9999	2,86595082
3	0	2789,9999	2,86993527
3	0	2804,9999	2,87359548
3	0	2819,9999	2,87256598
3	0	2834,9999	2,8732903
3	0	2849,9999	2,87367153
3	0	2864,9999	2,87557793
3	0	2879,9999	2,8759594
3	0	2894,9999	2,87178445
3	0	2909,9999	2,86882949
3	0	2924,9999	2,86650372
3	0	2939,9999	2,866256
3	0	2954,9999	2,86507392
3	0	2969,9999	2,8659699
3	0	2984,9999	2,86429238
3	0	2999,9999	2,8636632
3	0	3014,9999	2,86537886
3	0	3029,9999	2,86709476
3	0	3044,9999	2,86860061
3	0	3059,9999	2,86884856
3	0	3074,9999	2,8682003
3	0	3089,9999	2,86982083
3	0	3104,9999	2,8701067
3	0	3119,9999	2,86983991
3	0	3134,9999	2,86738062
3	0	3149,9999	2,86751413
3	0	3164,9999	2,86999226
3	0	3179,9999	2,86850548
3	0	3194,9999	2,87289
3	0	3209,9999	2,8745296
3	0	3224,9999	2,87679815
3	0	3239,9999	2,87677908
3	0	3254,9999	2,87168908
3	0	3269,9999	2,8712697
3	0	3284,9999	2,87268043
3	0	3299,9999	2,88205957
3	0	3314,9999	2,88352752
3	0	3329,9999	2,8864634
3	0	3344,9999	2,88735938
3	0	3359,9999	2,88549113
3	0	3374,9999	2,8834703
3	0	3389,9999	2,88255525
3	0	3404,9999	2,8824029
3	0	3419,9999	2,88209772
3	0	3434,9999	2,88306999
3	0	3449,9999	2,88171649
3	0	3464,9999	2,88045835
3	0	3479,9999	2,87881875
3	0	3494,9999	2,87605453
3	0	3509,9999	2,87727475
3	0	3524,9999	2,8763597
3	0	3539,9999	2,87674093
3	0	3554,9999	2,87651205
3	0	3569,9999	2,87153649
3	0	3584,9999	2,87069774
3	0	3599,9999	2,87653112