File: Experimentelles/Rohdaten/Batterietests/AlteZelle/Studenten_Batterietests/LLTO_LP30_Li/ECLab-Export/LLTO_LP30_Li_07_PEIS_C01.mpt
EC-Lab ASCII FILE
Nb header lines : 68

Potentio Electrochemical Impedance Spectroscopy

Run on channel : 1 (SN 6985)
Grouped channel(s) : 1
User :
CE vs. WE compliance from -10 V to 10 V
Electrode connection : standard
Ewe ctrl range : min = 0,00 V, max = 5,00 V
Acquisition started on : 04.22.2015 16:16:38
Saved on :
	File : LLTO_LP30_Li_07_PEIS_C01.mpr
	Directory : C:\Hupfer\Studenten Batterietests\LLTO_LP30_Li\
	Host : 192.168.0.2
Device : VMP3 (SN 0324)
Address : 192.168.0.1
EC-Lab for windows v10.33 (software)
Internet server v10.33 (firmware)
Command interpretor v10.32 (firmware)
Electrode material :
Initial state :
Electrolyte :
Comments :
Mass of active material : 0,001 mg
 at x = 0,000
Molecular weight of active material (at x = 0) : 0,001 g/mol
Atomic weight of intercalated ion : 0,001 g/mol
Acquisition started at : xo = 0,000
Number of e- transfered per intercalated ion : 1
for DX = 1, DQ = 26,801 mA.h
Battery capacity : 0,000 A.h
Electrode surface area : 0,001 cm²
Characteristic mass : 0,001 g
Multi Sine          0
E (V)               0,0000
vs.                 Eoc
tE (h:m:s)          0:00:0,0000
record              0
dI                  0,000
unit dI             mA
dt (s)              0,000
fi                  1,000
unit fi             MHz
ff                  1,000
unit ff             Hz
Sel Nd              1
Nd                  6
Nt                  51
Log                 1
Va (mV)             10,0
pw                  0,10
Na                  2
E range min (V)     0,000
E range max (V)     5,000
I Range             Auto
Bandwidth           5
corr                0
nc cycles           0
goto Ns'            0
nr cycles           0
inc. cycle          0

Number of loops : 1
Loop 0 from point number 0 to 36

freq/Hz	Re(Z)/Ohm	-Im(Z)/Ohm	|Z|/Ohm	Phase(Z)/deg	time/s	<Ewe>/V	<I>/mA	Cs/µF	Cp/µF	cycle number	I Range	|Ewe|/V	|I|/A	Re(Y)/Ohm-1	Im(Y)/Ohm-1	|Y|/Ohm-1	Phase(Y)/deg
1000024,25	0,379695207	-5,66948795	5,68218803	86,1685257	457505,8920	2,76387358	0,11317347	-0,0280715097	-0,0279461667	1	9	0,000589052332	0,000103666462	0,0117599089	-0,175595194	0,17598854	-86,1685257
681286,5	16,2734203	-2,06730294	16,4042053	7,23982191	457508,2760	2,7642777	0,00679826783	-0,113002017	-0,0017946678	1	10	0,00228761253	0,000139452808	0,0604739673	-0,00768234394	0,0609599799	-7,23982191
464160,125	16,2308693	-0,881101787	16,2547665	3,10728359	457509,5080	2,7644279	0,00649645645	-0,389158249	-0,00114344934	1	10	0,00714777084	0,00043973382	0,06142997	-0,0033347602	0,0615204163	-3,10728359
316223,094	16,2860012	-0,0890969411	16,2862453	0,313448787	457509,8221	2,76449966	0,00715786079	-5,6488986	-0,00016906255	1	10	0,0106731085	0,000655344978	0,0614005849	-0,000335908349	0,061401505	-0,313448787
215441,859	16,3772068	0,568873107	16,3870831	-1,98940694	457510,2381	2,76461768	0,00786211528	1,29859769	0,00156495604	1	10	0,0101567423	0,000619801751	0,0609868951	0,00211842009	0,0610236749	1,98940694
146777,328	16,5135441	1,22385061	16,5588322	-4,23855209	457510,6540	2,76467872	0,00729945721	0,885998011	0,00483983057	1	10	0,0101320017	0,00061187899	0,0602255613	0,00446343282	0,0603907332	4,23855209
100024,406	16,7236671	1,99817228	16,842617	-6,81349707	457510,9681	2,7646513	0,00234545371	0,796308219	0,011207995	1	10	0,0108274948	0,000642862986	0,0589538775	0,00704390975	0,0593731962	6,81349707
68127,4297	16,9844723	2,9409008	17,2372036	-9,82349491	457511,2821	2,76470971	0,00790682994	0,794360697	0,0231230389	1	10	0,0106079988	0,00061541301	0,0571634509	0,00989798363	0,0580140501	9,82349491
46411,125	17,4298992	4,1762352	17,9232349	-13,4741573	457511,5960	2,76471949	0,00788074639	0,821132243	0,0445810407	1	10	0,0104505792	0,000583074405	0,0542577878	0,013000262	0,0557934977	13,4741573
31628,4121	18,1808929	5,75611591	19,0703373	-17,567915	457511,9101	2,76471305	0,00789192505	0,874204934	0,0796444491	1	10	0,010193943	0,000534544466	0,0499917679	0,0158275161	0,0524374582	17,567915
21545,4082	19,4283428	7,7455039	20,9153843	-21,7357044	457512,2241	2,7647171	0,00782298949	0,953708589	0,130792663	1	10	0,0101445932	0,000485030207	0,0444123782	0,0177058987	0,0478116944	21,7357044
14672,8496	21,4385109	10,030261	23,6688805	-25,0730991	457512,4361	2,76471615	0,00789005775	1,08141756	0,194205925	1	10	0,0104545886	0,000441701879	0,0382683016	0,017904276	0,0422495678	25,0730991
10015,2705	24,3472691	12,3395214	27,2956638	-26,8765011	457512,6883	2,76475048	0,00927061774	1,28783166	0,263189435	1	10	0,010496025	0,000384530867	0,0326785631	0,0165619329	0,0366358571	26,8765011
6856,00244	28,0013542	14,2371445	31,4129295	-26,9508247	457513,0377	2,7647512	0,00767207053	1,63052046	0,334930867	1	10	0,0104511129	0,000332700991	0,0283767171	0,0144279953	0,0318340249	26,9508247
4642,42725	32,1159325	15,6548843	35,72826	-25,9868793	457513,4889	2,76475406	0,00755469548	2,18990445	0,420437217	1	10	0,00975797325	0,000273116399	0,0251591988	0,0122638298	0,0279890485	25,9868793
3160,05566	36,3424225	16,7737885	40,026638	-24,77561	457514,1849	2,76475024	0,000853368663	3,00257754	0,527300715	1	11	0,0104714511	0,000261612062	0,0226837937	0,0104696685	0,0249833632	24,77561
2152,93286	40,3438072	18,0282021	44,1886749	-24,0781574	457514,6364	2,76475048	0,000853555277	4,10050392	0,682527423	1	11	0,010485067	0,000237279499	0,0206611715	0,00923273806	0,0226302333	24,0781574
1468,58972	44,6912193	19,7208023	48,8488998	-23,8103294	457515,0874	2,76474595	0,000874616788	5,49534655	0,895642459	1	11	0,0104568182	0,000214064552	0,0187289156	0,00826446898	0,0204712898	23,8103294
999,040405	49,8355064	21,7633705	54,3803444	-23,5910931	457515,5384	2,76474977	0,000855418213	7,31999731	1,17240953	1	11	0,0104203504	0,000191619794	0,0168521367	0,0073593976	0,0183889978	23,5910931
681,089661	56,028183	23,6040306	60,7972679	-22,8451328	457515,9889	2,764745	0,000865109498	9,89987373	1,4922235	1	11	0,0103872139	0,000170850006	0,0151578775	0,00638583954	0,0164481066	22,8451328
464,553894	63,1561279	24,6491394	67,795845	-21,3201523	457516,4404	2,76474285	0,0008799262	13,8989592	1,83729815	1	11	0,0103621604	0,000152843582	0,0137407156	0,00536284968	0,0147501668	21,3201523
316,315765	70,7179794	24,3269691	74,7852554	-18,9832039	457516,8894	2,76474476	0,000842461712	20,6828938	2,18854427	1	11	0,0103435712	0,000138310308	0,0126443906	0,00434966711	0,0133716194	18,9832039
215,344498	77,8095474	22,5256023	81,0044937	-16,1455536	457517,3399	2,76474547	0,000842088892	32,8102798	2,53714061	1	11	0,0103367837	0,000127607535	0,011858088	0,0034328769	0,0123449946	16,1455536
146,737289	83,6045609	19,8063602	85,9186478	-13,3279581	457517,7868	2,76474285	0,000818603847	54,7614517	2,91011024	1	11	0,0103283431	0,000120210731	0,0113254404	0,00268305652	0,011638917	13,3279581
99,9040375	87,9111328	16,9980392	89,5393829	-10,9433699	457518,2384	2,76474333	0,000834353559	93,7212982	3,37759614	1	11	0,0103258416	0,000115321782	0,0109651787	0,00212016981	0,0111682704	10,9433699
68,1888962	91,05793	14,6508684	92,2290344	-9,14033222	457518,7005	2,76474524	0,000833701284	159,310028	4,02007818	1	11	0,010326813	0,000111969217	0,0107048964	0,00172237633	0,0108425729	9,14033222
46,3802681	93,3194885	13,1209517	94,2373962	-8,00346375	457519,1392	2,76474118	0,000762127689	261,529999	5,06997299	1	11	0,0103258155	0,000109572378	0,0105081387	0,00147747039	0,0106114987	8,00346375
31,5869217	95,1741791	12,5104561	95,992897	-7,48848295	457519,5691	2,76473999	0,000808165874	402,753845	6,84081411	1	11	0,0103250798	0,000107560874	0,0103285881	0,00135767227	0,0104174372	7,48848295
21,5220375	96,7529755	12,8252831	97,5993118	-7,55093479	457519,9910	2,76474357	0,000565300463	576,593628	9,95658016	1	11	0,0103253378	0,000105793144	0,010157126	0,00134639803	0,0102459742	7,55093479
14,6851501	98,1950378	14,1775522	99,2132492	-8,21567917	457520,4515	2,76474547	0,000560268061	764,434937	15,6100273	1	11	0,0103275208	0,000104094172	0,0099758571	0,00144032971	0,0100792991	8,21567917
9,9904108	99,7292709	16,8163776	101,137123	-9,57119656	457520,9024	2,76474237	0,000589065196	947,33667	26,1907558	1	11	0,0103219617	0,000102059079	0,00974992849	0,00164403568	0,00988756586	9,57119656
6,81718969	101,160233	21,166687	103,35096	-11,8180237	457521,4349	2,76474333	0,000250482088	1102,96533	46,2635117	1	12	0,0103268716	9,99204203E-005	0,00947067235	0,00198163581	0,00967576914	11,8180237
4,63925123	103,261139	28,4479923	107,108131	-15,4026489	457521,9197	2,7647469	-0,000216348475	1205,9259	85,0704956	1	12	0,0103249019	9,63969942E-005	0,00900102593	0,00247974345	0,00933635887	15,4026489
3,16039586	105,309586	37,1867867	111,682434	-19,4490795	457522,6137	2,76475453	0,000564189337	1354,22229	150,140396	1	12	0,0103271687	9,24690539E-005	0,0084430268	0,0029813908	0,00895395968	19,4490795
2,1522038	108,015205	52,7167854	120,192947	-26,0146751	457523,6190	2,76475501	0,000599839608	1402,77429	269,853271	1	12	0,0103263361	8,59146603E-005	0,00747699197	0,0036491435	0,00831995532	26,0146751
1,46630979	109,382004	71,6826019	130,77774	-33,2385025	457525,0804	2,76475358	0,0003299776	1514,19104	454,925751	1	12	0,010327057	7,89664773E-005	0,00639555464	0,00419127429	0,00764656113	33,2385025
0,998529792	113,792358	101,264763	152,326141	-41,666153	457527,2130	2,76475692	0,000369412563	1573,9856	695,614441	1	12	0,0103278412	6,78008437E-005	0,00490415515	0,00436424837	0,00656486116	41,666153