File: Experimentelles/Ausgewaehlte_Daten/LiS/CV/LiS_Klein_Vollprogramm_08_CV_C01.mpt
EC-Lab ASCII FILE
Nb header lines : 77

Cyclic Voltammetry

Run on channel : 1 (SN 6985)
Grouped channel(s) : 1
User :
CE vs. WE compliance from -10 V to 10 V
Electrode connection : standard
Ewe ctrl range : min = 0,00 V, max = 5,00 V
Acquisition started on : 08/28/2015 15:57:10
Saved on :
	File : LiS_Klein_Vollprogramm_08_CV_C01.mpr
	Directory : C:\Gielisch\NeueZelle\LiS-Test\150828\
	Host : 192.168.0.2
Device : VMP3 (SN 0324)
Address : 192.168.0.1
EC-Lab for windows v10.33 (software)
Internet server v10.33 (firmware)
Command interpretor v10.32 (firmware)
Electrode material :
Initial state :
Electrolyte :
Comments :
Mass of active material : 0,001 mg
 at x = 0,000
Molecular weight of active material (at x = 0) : 0,001 g/mol
Atomic weight of intercalated ion : 0,001 g/mol
Acquisition started at : xo = 0,000
Number of e- transfered per intercalated ion : 1
for DX = 1, DQ = 26,801 mA.h
Battery capacity : 0,000 A.h
Electrode surface area : 0,001 cm²
Characteristic mass : 0,001 g
Ei (V)              0,000
vs.                 Eoc
dE/dt               10,000
dE/dt unit          mV/s
E1 (V)              2,800
vs.                 Ref
Step percent        50
N                   10
E range min (V)     0,000
E range max (V)     5,000
I Range             Auto
Bandwidth           5
E2 (V)              1,500
vs.                 Ref
nc cycles           0
Reverse Scan        1
Ef (V)              0,000
vs.                 Eoc

Modify on : 08/28/2015 16:00
E1 (V)              3,000
E2 (V)              1,000

Modify on : 08/28/2015 16:01
E1 (V)              3,500

Modify on : 08/28/2015 16:34
E2 (V)              0,800

Modify on : 08/28/2015 16:35
E1 (V)              3,800

Number of loops : 7
Loop 0 from point number 0 to 6000
Loop 1 from point number 6001 to 12000
Loop 2 from point number 12001 to 18000
Loop 3 from point number 18001 to 24000
Loop 4 from point number 24001 to 30001
Loop 5 from point number 30002 to 36002
Loop 6 from point number 36003 to 42003

mode	ox/red	error	control changes	counter inc.	time/s	control/V	Ewe/V	<I>/mA	cycle number	(Q-Qo)/C	P/W
2	1	0	0	0	499162,8954	1,71838415	1,71929204	1,6739178363422979E-006	1	0	2,87795365E-009
2	1	0	1	0	499202,5262	2,11469245	2,11518478	0,12681059151266538	1	0,00201814133	0,000268227828
2	1	0	0	0	499242,1320	2,51075101	2,5112915	0,53517361446148646	1	0,012958697	0,00134397694
2	1	0	0	0	499281,7780	2,90721035	2,90789771	1,5711181627379744	1	0,0546582155	0,00456865085
2	1	0	1	0	499321,3837	3,30326891	3,30396032	2,0570657658908259	1	0,131338984	0,00679646386
2	1	0	1	0	499360,9897	3,69932747	3,70011616	1,7192286526163674	1	0,206410274	0,00636134576
2	0	0	0	0	499400,4159	3,50639892	3,50703049	0,89441099542155917	1	0,258068055	0,00313672656
2	0	0	0	0	499440,0618	3,10994005	3,11038017	0,44359501230497146	1	0,283545166	0,00137974916
2	0	0	1	0	499479,6676	2,71388173	2,71452713	0,18270414362281562	1	0,295643419	0,000495955348
2	0	0	1	0	499519,3936	2,3166225	2,31720805	-0,072955026929437722	1	0,297822863	0,000169051971
2	0	0	0	0	499559,0393	1,92016363	1,92079365	-0,5707604918215017	1	0,286102444	0,00109631312
2	0	0	0	0	499598,6453	1,52410483	1,52468646	-0,47056807508624845	1	0,263679266	0,000717468793
2	0	0	1	0	499638,2511	1,12804604	1,12841475	-0,42333717858072275	1	0,247114867	0,000477699912
2	1	0	1	1	499677,7075	0,866607428	0,867072999	-0,43487524958672166	1	0,229284555	0,000377068587
2	1	0	1	1	499717,3134	1,26266599	1,26333594	-0,2209481244079017	1	0,216427073	0,000279131695
2	1	0	0	1	499756,9592	1,65912485	1,65952313	-0,02301376254116655	1	0,211821049	3,81918726E-005
2	1	0	1	0	499796,6034	2,05498338	2,05576372	0,11877973687731158	2	0,00169932761	0,000244183087
2	1	0	0	0	499836,2091	2,45104265	2,45164347	0,37329632968263392	2	0,0110917091	0,000915189506
2	1	0	1	0	499875,8149	2,84710097	2,84791994	0,86926936758337754	2	0,0335131213	0,00247560954
2	1	0	1	0	499915,4609	3,24356008	3,24418306	1,2936452708586507	2	0,0818781927	0,00419682218
2	1	0	0	0	499955,0667	3,63961887	3,6402452	0,9370374239429431	2	0,12645103	0,003411046
2	0	0	0	0	499994,6030	3,56500769	3,56585002	0,39444636553525747	2	0,154259652	0,00140653655
2	0	0	0	0	500034,2090	3,16894865	3,16959143	0,14665553146214672	2	0,164133832	0,000464838115
2	0	0	1	0	500073,8548	2,77249002	2,77300787	0,02064462169073497	2	0,167294398	5,72477002E-005
2	0	0	1	0	500113,5807	2,37523127	2,37583613	-0,10620592953637464	2	0,165854156	0,000252327882
2	0	0	0	0	500153,1865	1,97917247	1,97969317	-0,42454635896891776	2	0,156022698	0,000840471534
2	0	0	1	0	500192,7924	1,58311355	1,58379507	-0,44741008454998707	2	0,137277961	0,000708605861
2	0	0	1	0	500232,3982	1,18705487	1,18760848	-0,4907837343160679	2	0,119303435	0,00058285892
2	1	0	1	1	500271,8546	0,807598591	0,808030725	-0,52268868553693146	2	0,0988554135	0,00042234853
2	1	0	0	1	500311,4604	1,20365739	1,20410204	-0,29927001231246918	2	0,0829840973	0,000360351638
2	1	0	0	1	500351,0664	1,59971595	1,6000396	-0,10495927876413374	2	0,0749114305	0,000167938997
2	1	0	0	0	500390,6585	1,9947747	1,99544716	0,048351855702799987	3	0,00012808443	9,64835708E-005
2	1	0	0	0	500430,2945	2,3911345	2,39174247	0,23346767832469517	3	0,00510841561	0,000558394589
2	1	0	1	0	500469,9003	2,78719234	2,78790188	0,62947778955652826	3	0,0212732535	0,00175492233
2	1	0	0	0	500509,5460	3,18365073	3,18427181	1,1314875008883422	3	0,0583449267	0,00360296364
2	1	0	0	0	500549,1520	3,57970977	3,58030295	0,80999192140170355	3	0,0978216007	0,00290001649
2	0	0	0	0	500588,6784	3,62501621	3,62563181	0,3239002769329984	3	0,121822216	0,00117434317
2	0	0	1	0	500628,2842	3,22895765	3,22954726	0,085397241809576973	3	0,128927156	0,000275794417
2	0	0	1	0	500668,0101	2,83169866	2,83236194	-0,021200185266530058	3	0,130065739	6,00465974E-005
2	0	0	0	0	500707,6459	2,43533993	2,43581367	-0,10378962320585706	3	0,127748609	0,000252812169
2	0	0	0	0	500747,2519	2,03928137	2,03996086	-0,2740434028760097	3	0,120264024	0,000559037842
2	0	0	1	0	500786,8576	1,64322257	1,64390719	-0,37661375881481926	3	0,107049949	0,000619118044
2	0	0	0	0	500826,4635	1,24716318	1,24783504	-0,43651959430423328	3	0,0916105583	0,000544704439
2	0	0	0	0	500866,0694	0,851104975	0,851595104	-0,52894280471458189	3	0,0726991668	0,000450445106
2	1	0	0	1	500905,5357	1,14364839	1,14428461	-0,33160715715752474	3	0,0559300482	0,000379452977
2	1	0	1	1	500945,1415	1,53970718	1,54022229	-0,16689390447680941	3	0,0460913815	0,000257053704
2	1	0	1	0	500984,6698	1,93516612	1,93564785	-0,0062374315430203942	4	-0,00101374893	1,20734712E-005
2	1	0	1	0	501024,3857	2,33232474	2,33281946	0,17963956184340214	4	0,00195305003	0,000419066666
2	1	0	0	0	501063,9915	2,72838402	2,72910047	0,4796174599131984	4	0,0146966549	0,00130892429
2	1	0	0	0	501103,6274	3,12474251	3,12537217	1,008796848218779	4	0,0440547131	0,00315286568
2	1	0	1	0	501143,2332	3,52080107	3,5215416	0,62788964021536448	4	0,0790870637	0,00221113954
2	0	0	0	0	501182,7494	3,6840241	3,68476295	0,32000661753250982	4	0,0989480987	0,00117914856
2	0	0	0	0	501222,3553	3,28796673	3,28849578	0,06965719401422743	4	0,105547681	0,000229067387
2	0	0	1	0	501262,0811	2,89070773	2,89152455	-0,026880103128927078	4	0,106265642	7,77244786E-005
2	0	0	1	0	501301,7271	2,49424911	2,49474478	-0,10604185800723664	4	0,10346242	0,000264547358
2	0	0	0	0	501341,3328	2,09819007	2,09873986	-0,20252405769295613	4	0,0974909067	0,00042504532
2	0	0	0	0	501380,9388	1,70213115	1,7026509	-0,28662845578596781	4	0,0879703462	0,000488028192
2	0	0	1	0	501420,5446	1,30607247	1,30649936	-0,37794901403013536	4	0,0752072409	0,000493790139
2	0	0	1	0	501460,1505	0,910013735	0,910570502	-0,48187618433599866	4	0,0579326004	0,000438782241
2	1	0	0	1	501499,6067	1,08463967	1,08525574	-0,33504018228915386	4	0,0409770682	0,000363604282
2	1	0	0	1	501539,2127	1,48069847	1,48127806	-0,18686444270941306	4	0,0305883493	0,000276798208
2	1	0	1	0	501578,7610	1,87575698	1,87628472	-0,030236571488246208	5	-0,000936032971	5,67324169E-005
2	1	0	0	0	501618,4769	2,27291512	2,27348232	0,12939808872422365	5	0,000788870617	0,000294184254
2	1	0	0	0	501658,0828	2,66897464	2,66967511	0,37895082299495898	5	0,0106893219	0,00101167557
2	1	0	1	0	501697,6887	3,06503367	3,06585765	0,86771586279846605	5	0,0337434188	0,00266029336
2	1	0	1	0	501737,2945	3,46109247	3,4617064	0,50883550465935731	5	0,0651262999	0,00176143914
2	0	0	0	0	501776,7407	3,74443388	3,74520016	0,35801245527409978	5	0,0833351836	0,00134082825
2	0	0	1	0	501816,3465	3,34837532	3,34900379	0,073006534328064806	5	0,0904523134	0,000244499155
2	0	0	1	0	501856,0724	2,95111632	2,95151997	-0,019902919774822502	5	0,0913144425	5,87438662E-005
2	0	0	0	0	501895,7182	2,55465817	2,5553472	-0,11945974081247714	5	0,0887296498	0,000305261114
2	0	0	0	0	501935,3242	2,15859914	2,15919471	-0,16785020915860227	5	0,0832675174	0,00036242127
2	0	0	1	0	501974,9299	1,76254022	1,76318538	-0,2395679070096881	5	0,0752475038	0,000422402634
2	0	0	1	0	502014,5359	1,36648142	1,36705637	-0,32590001714587846	5	0,0643418282	0,000445523707
2	0	0	0	0	502054,1417	0,970422745	0,970846951	-0,44179501888100538	5	0,0495573618	0,000428915344
2	1	0	0	1	502093,6381	1,02463078	1,02509534	-0,33721738388002144	5	0,0330681689	0,00034567996
2	1	0	1	1	502133,2438	1,42068946	1,42117107	-0,19676580493924333	5	0,0225359406	0,000279637869
2	1	0	0	0	502172,7564	1,81534803	1,81592798	-0,050636349564971763	6	-0,000640834973	9,19519662E-005
2	1	0	0	0	502212,4424	2,21220684	2,21293974	0,091430350284401715	6	9,62790073E-005	0,000202329858
2	1	0	1	0	502252,0781	2,60856581	2,60911345	0,30447642984627078	6	0,00775895314	0,000794413558
2	1	0	1	0	502291,6841	3,00462461	3,00519371	0,67933094549786266	6	0,0261836294	0,00204152102
2	1	0	0	0	502331,2899	3,40068316	3,40136766	0,47575641195807571	6	0,0547494404	0,00161822245
2	1	0	0	0	502370,8959	3,79674196	3,79747462	0,42878940853255674	6	0,0721320361	0,00162831694
2	0	0	1	0	502410,3820	3,40838432	3,40903926	0,086762093386992474	6	0,0804011151	0,00029577539
2	0	0	1	0	502450,1080	3,01112533	3,01177859	-0,010242597809000859	6	0,0816627219	3,08484377E-005
2	0	0	0	0	502489,7538	2,61466694	2,61519957	-0,10204564198782717	6	0,0796963647	0,000266869727
2	0	0	1	0	502529,3596	2,21860743	2,21920729	-0,14348276370316704	6	0,0744767934	0,000318417995
2	0	0	1	0	502568,9655	1,8225491	1,82328391	-0,19580865796242186	6	0,0677324161	0,000357014767
2	0	0	0	0	502608,5713	1,42649043	1,42700303	-0,29125692881643238	6	0,0582825951	0,000415624527
2	0	0	0	0	502648,1772	1,03043151	1,03095841	-0,38213374234599942	6	0,044950068	0,000393964001
2	1	0	0	1	502687,6736	0,964621961	0,965077281	-0,3455970641570567	6	0,0290461238	0,000333527889
2	1	0	0	1	502727,2796	1,36068058	1,36116636	-0,20387093474467389	6	0,018313596	0,000277502259
2	1	0	0	0	502766,7482	1,75523913	1,75582564	-0,068828063585831821	7	-0,000244492228	0,000120850076
2	1	0	1	0	502806,4339	2,15209746	2,15277863	0,063179768199691366	7	-0,000318347884	0,000136012051
2	1	0	1	0	502846,0699	2,54845691	2,54903293	0,24690080551361149	7	0,00563591765	0,000629358285
2	1	0	0	0	502885,6757	2,94451571	2,94520688	0,52593135026593171	7	0,0201049373	0,00154897664
2	1	0	0	0	502925,2816	3,3405745	3,34129596	0,53842246753198528	7	0,0460545346	0,00179902883
2	1	0	1	0	502964,8874	3,7366333	3,73730087	0,41438800917456045	7	0,0630740747	0,0015486927
2	0	0	1	0	503004,3838	3,46839333	3,46907973	0,10421357717778613	7	0,0728344619	0,000361525221
2	0	0	0	0	503044,0696	3,0715344	3,0720861	0,00052662402992642989	7	0,0746218488	1,61783441E-006
2	0	0	1	0	503083,7154	2,67507625	2,67544103	-0,075031439133554483	7	0,0732679293	0,000200742186
2	0	0	1	0	503123,3613	2,27861691	2,27913713	-0,13039148140147128	7	0,068600066	0,000297180057
2	0	0	0	0	503162,9672	1,88255763	1,88308239	-0,17411134293171405	7	0,0627311468	0,000327866001
2	0	0	0	0	503202,5730	1,48649931	1,48706555	-0,24092193475614554	7	0,0544792637	0,000358266698
2	0	0	1	0	503242,1788	1,09044051	1,09098077	-0,34058624585331834	7	0,0429111421	0,000371573056
2	1	0	0	1	503281,6754	0,904612958	0,905121684	-0,34157303375778714	7	0,0282914918	0,00030916516
2	1	0	1	1	503321,2811	1,3006717	1,30105042	-0,21129265706986566	7	0,0174686406	0,000274902413
2	1	0	1	1	503360,8871	1,69673038	1,6972909	-0,085107802844572147	7	0,0115578249	0,000144452701
2	1	0	0	1	503363,4511	1,72238481	1,72282076	-0,076023372218889446	7	0,0113512892	0,000130974644