File: Experimentelles/Ausgewaehlte_Daten/LiS/CV/LiS_Klein_Vollprogramm_02_CV_C01.mpt
EC-Lab ASCII FILE
Nb header lines : 77

Cyclic Voltammetry

Run on channel : 1 (SN 6985)
Grouped channel(s) : 1
User :
CE vs. WE compliance from -10 V to 10 V
Electrode connection : standard
Ewe ctrl range : min = 0,00 V, max = 5,00 V
Acquisition started on : 08/28/2015 15:57:10
Saved on :
	File : LiS_Klein_Vollprogramm_02_CV_C01.mpr
	Directory : C:\Gielisch\NeueZelle\LiS-Test\150828\
	Host : 192.168.0.2
Device : VMP3 (SN 0324)
Address : 192.168.0.1
EC-Lab for windows v10.33 (software)
Internet server v10.33 (firmware)
Command interpretor v10.32 (firmware)
Electrode material :
Initial state :
Electrolyte :
Comments :
Mass of active material : 0,001 mg
 at x = 0,000
Molecular weight of active material (at x = 0) : 0,001 g/mol
Atomic weight of intercalated ion : 0,001 g/mol
Acquisition started at : xo = 0,000
Number of e- transfered per intercalated ion : 1
for DX = 1, DQ = 26,801 mA.h
Battery capacity : 0,000 A.h
Electrode surface area : 0,001 cm²
Characteristic mass : 0,001 g
Ei (V)              0,000
vs.                 Eoc
dE/dt               10,000
dE/dt unit          mV/s
E1 (V)              2,800
vs.                 Ref
Step percent        50
N                   10
E range min (V)     0,000
E range max (V)     5,000
I Range             Auto
Bandwidth           5
E2 (V)              1,500
vs.                 Ref
nc cycles           0
Reverse Scan        1
Ef (V)              0,000
vs.                 Eoc

Modify on : 08/28/2015 15:59
E1 (V)              3,000
E2 (V)              1,000

Modify on : 08/28/2015 16:01
E1 (V)              3,500

Modify on : 08/28/2015 16:07
E2 (V)              0,800

Modify on : 08/28/2015 16:35
E1 (V)              3,800

Number of loops : 7
Loop 0 from point number 0 to 2602
Loop 1 from point number 2603 to 7602
Loop 2 from point number 7603 to 13002
Loop 3 from point number 13003 to 18402
Loop 4 from point number 18403 to 23802
Loop 5 from point number 23803 to 29801
Loop 6 from point number 29802 to 35799

mode	ox/red	error	control changes	counter inc.	time/s	control/V	Ewe/V	<I>/mA	cycle number	(Q-Qo)/C	P/W
2	1	0	1	0	0,0508	2,73943591	2,74002028	-0,0013689417392015458	1	0	3,75092804E-006
2	0	0	0	0	32,2108	2,53905535	2,53911018	-0,015342863354211062	1	-0,0001848338	3,89572197E-005
2	0	0	0	0	64,5556	2,21560717	2,2157011	-0,3452388105431097	1	-0,00321619399	0,000764945988
2	0	0	0	0	96,8904	1,89225924	1,89233637	-3,2539981912683373	1	-0,053213425	0,00615765899
2	0	0	0	0	129,1952	1,56921136	1,5692302	-6,0970699869924378	1	-0,209606126	0,00956770591
2	1	0	0	1	161,2706	1,75153852	1,75168991	-3,3008508731921376	1	-0,373082489	0,00578206731
2	1	0	0	1	193,5754	2,07458639	2,07475162	-0,56451458049317414	1	-0,432227999	0,00117122754
2	1	0	0	1	226,0302	2,3991344	2,39929676	1,117921570798865	1	-0,420802683	0,00268222555
2	1	0	0	1	258,3350	2,72218251	2,72224712	2,9371190363610362	1	-0,358391076	0,00799556356
2	1	0	0	0	290,6296	3,04413009	3,04455423	2,408947990448393	2	0,0893338844	0,00733417273
2	1	0	0	0	322,9344	3,36717772	3,3677361	0,76335810883729408	2	0,133708596	0,00257078861
2	0	0	1	0	355,0098	3,31206989	3,31247616	0,36284316086244806	2	0,151025206	0,00120190927
2	0	0	1	0	387,3146	2,98902202	2,98938823	0,22491449866167955	2	0,160241678	0,000672356749
2	0	0	1	0	419,6194	2,66597414	2,66635776	0,14192806022172677	2	0,166184962	0,000378430996
2	0	0	1	0	452,0842	2,34132624	2,3418169	-0,42194779141357677	2	0,166509733	0,000988124521
2	0	0	1	0	484,4290	2,01787806	2,01825619	-2,7583238932269555	2	0,115865402	0,00556700444
2	0	0	1	0	516,7338	1,69482994	1,6952213	-4,1018215726923162	2	0,00184298505	0,00695349509
2	0	0	1	0	549,0386	1,37178206	1,37220883	-5,1664848404902035	2	-0,148806453	0,00708949612
2	0	0	1	0	581,3434	1,04873419	1,04913831	-5,1466513656907648	2	-0,320848465	0,00539954891
2	1	0	0	1	613,4788	1,27256739	1,27301061	-2,2001551858804758	2	-0,433987856	0,00280082086
2	1	0	0	1	645,7836	1,59561539	1,59621918	-1,0658546546819032	2	-0,484747618	0,00170133763
2	1	0	0	1	678,1284	1,91906333	1,91950357	-0,074971006829636646	2	-0,503604472	0,00014390712
2	1	0	0	1	710,5932	2,24371171	2,24428034	0,98903092079692096	2	-0,490286589	0,00221966254
2	1	0	0	1	742,9280	2,56705952	2,56757379	2,6169240113209824	2	-0,435350507	0,00671914546
2	1	0	1	0	775,2368	2,88980746	2,89023423	4,4177464114294906	3	0,0598957986	0,0127683217
2	1	0	1	0	807,5416	3,21285534	3,21332717	5,1340455777115219	3	0,218657374	0,016497368
2	0	0	1	0	839,6066	3,46649289	3,46684504	3,4717048848116858	3	0,36520353	0,0120358625
2	0	0	1	0	871,9114	3,14344501	3,14394832	0,69255037357409856	3	0,423910916	0,00217734254
2	0	0	1	0	904,2563	2,81999612	2,82058716	0,33368582333000154	3	0,438888282	0,000941189937
2	0	0	1	0	936,5610	2,49694943	2,4974916	0,091037975553086899	3	0,446421981	0,000227366574
2	0	0	0	0	969,0560	2,17200065	2,17240691	-1,8443268184308685	3	0,423491836	0,00400662841
2	0	0	0	0	1001,3608	1,84895301	1,84943879	-3,5103221734364851	3	0,328595132	0,0064921258
2	0	0	0	0	1033,6656	1,52590489	1,52632833	-3,967547256637488	3	0,210217431	0,00605577976
2	0	0	0	0	1065,9704	1,20285714	1,2032088	-4,2383927791206765	3	0,0731432959	0,00509967143
2	0	0	0	0	1098,2752	0,879809201	0,880267382	-3,4293543437012774	3	-0,0532407649	0,00301874871
2	1	0	0	1	1130,4104	1,04163313	1,04208541	-1,1773988833581902	3	-0,123370215	0,0012269502
2	1	0	0	1	1162,7152	1,36468101	1,3650893	-0,65075035531211789	3	-0,151737049	0,000888332317
2	1	0	0	1	1195,0600	1,68812907	1,68873441	-0,22795333799526586	3	-0,166456133	0,00038495264
2	1	0	1	1	1227,5250	2,01277733	2,01329374	0,50520884205551117	3	-0,162087232	0,00101713382
2	1	0	1	1	1259,8598	2,33612514	2,33657765	1,1943995727709051	3	-0,136506915	0,00279080728
2	1	0	1	1	1292,1646	2,65917325	2,65966153	3,1080893101515558	3	-0,0723545775	0,00826646574
2	1	0	0	0	1324,4318	2,98172069	2,98235321	4,7023473188833018	4	0,105566636	0,0140240602
2	1	0	0	0	1356,7366	3,30476856	3,30522299	4,681838642667856	4	0,259305209	0,0154745206
2	0	0	0	0	1388,8116	3,37447929	3,37498951	2,9018571793481203	4	0,390480518	0,0097937379
2	0	0	0	0	1421,1164	3,05143142	3,05186987	0,93875647239662822	4	0,448365599	0,00286496268
2	0	0	0	0	1453,4612	2,72798324	2,72841644	0,32191908683765843	4	0,466145694	0,000878329331
2	0	0	0	0	1485,9261	2,40333438	2,40378571	-0,24173834541526861	4	0,470471084	0,000581087195
2	0	0	0	0	1518,2709	2,07988715	2,08051515	-2,6587183102721462	4	0,424342752	0,00553150382
2	0	0	0	0	1550,5757	1,75683987	1,75736487	-3,4471859022065133	4	0,312701315	0,00605796324
2	0	0	0	0	1582,8805	1,43379164	1,4343257	-4,0022548025427936	4	0,196021408	0,00574053684
2	0	0	1	0	1615,1854	1,1107434	1,11111224	-3,7754341032770003	4	0,0685089082	0,00419493113
2	1	0	1	1	1647,3106	0,81059885	0,81110698	-2,8661313451550682	4	-0,0438723527	0,00232473924
2	1	0	1	1	1679,6154	1,13364685	1,13413751	-0,81843981491746829	4	-0,0897353962	0,000928223308
2	1	0	1	1	1711,9602	1,45709479	1,45756888	-0,37005947071506995	4	-0,108287744	0,000539387169
2	1	0	1	1	1744,3850	1,78134274	1,78186452	0,069275379499972429	4	-0,114089668	0,000123439342
2	1	0	1	1	1776,7298	2,10479093	2,10537601	0,65988110530155546	4	-0,101303756	0,00138929789
2	1	0	1	1	1809,0746	2,42823911	2,42874932	1,4919569517175366	4	-0,0693839863	0,00362358941
2	1	0	0	0	1841,3200	2,74998689	2,75054574	3,9851307968298598	5	0,00299637415	0,0109612849
2	1	0	0	0	1873,6248	3,07303476	3,07356286	5,2019022984637146	5	0,165241539	0,0159883741
2	1	0	0	0	1905,9296	3,39608192	3,39670444	4,260612843765159	5	0,318157852	0,0144720422
2	0	0	1	0	1937,9748	3,28346562	3,28389978	1,7152224340372582	5	0,415896386	0,00563261844
2	0	0	1	0	1970,3196	2,96001768	2,96034813	0,43687002153860186	5	0,445051789	0,00129328738
2	0	0	1	0	2002,6243	2,6369698	2,63732672	0,207838887762692	5	0,454978436	0,00054813904
2	0	0	1	0	2035,0891	2,31232166	2,31265664	-0,87736785563605606	5	0,451085895	0,00202905061
2	0	0	1	0	2067,4339	1,98887372	1,9892118	-3,2435170974996269	5	0,383110851	0,00645204261
2	0	0	1	0	2099,7387	1,66582561	1,66632855	-3,1065107426709562	5	0,271089613	0,00517646736
2	0	0	1	0	2132,0435	1,34277797	1,34325349	-3,8891259834722406	5	0,156049013	0,00522408215
2	0	0	1	0	2164,3483	1,01972997	1,02008045	-3,6720521681838464	5	0,0345709659	0,00374578871
2	1	0	0	1	2196,4737	0,901612461	0,902209938	-1,7363464296967949	5	-0,0664138347	0,00156654895
2	1	0	0	1	2228,7785	1,2246604	1,22524929	-0,70363565127330752	5	-0,101001091	0,000862129091
2	1	0	0	1	2261,1233	1,54810834	1,54864061	-0,26609335256809619	5	-0,116504662	0,000412082969
2	1	0	0	1	2293,5881	1,87275648	1,8733238	0,30130909855856915	5	-0,116998866	0,000564449525
2	1	0	0	1	2325,8929	2,19580436	2,19633651	0,81835492479580723	5	-0,097626552	0,00179738284
2	1	0	0	1	2358,2277	2,51915264	2,51951838	1,9208885309872858	5	-0,0573654808	0,00483971415
2	1	0	1	0	2390,5151	2,84160042	2,84187174	4,7291088291892314	6	0,042118039	0,0134395212
2	1	0	1	0	2422,8199	3,16464806	3,16520476	5,2547014510189882	6	0,218094036	0,0166322067
2	1	0	1	0	2455,1247	3,48769593	3,48828435	3,7492654936181254	6	0,363200039	0,0130785042
2	0	0	1	0	2487,3099	3,7904408	3,79078007	1,2600043944462555	6	0,447119623	0,00477639958
2	0	0	1	0	2519,6547	3,46699262	3,46738434	0,19493358454632493	6	0,46441564	0,000675909687
2	0	0	1	0	2551,9595	3,14394474	3,14421558	0,22615362179500086	6	0,471037418	0,000711075729
2	0	0	1	0	2584,2643	2,8208971	2,82144809	0,15696630123312906	6	0,47724095	0,00044287226
2	0	0	0	0	2616,6693	2,49684834	2,49724627	-0,010426599341977982	6	0,480284959	2,60377856E-005
2	0	0	0	0	2649,0641	2,17290092	2,17341375	-1,9663750819034006	6	0,453962743	0,00427374663
2	0	0	0	0	2681,3689	1,84985304	1,85033429	-3,3389995335428838	6	0,359931707	0,00617826544
2	0	0	0	0	2713,6737	1,52680516	1,5272727	-3,3666171740602541	6	0,262644023	0,00514174253
2	0	0	0	0	2745,9785	1,20375729	1,20430923	-3,8332495452077338	6	0,140871555	0,00461641792
2	0	0	0	0	2778,2833	0,88070941	0,881127298	-3,7814832351825914	6	0,0160989165	0,0033319681
2	1	0	0	1	2810,4085	1,04063308	1,04099393	-1,4227326121871133	6	-0,066817008	0,00148105598
2	1	0	0	1	2842,7133	1,36368096	1,36403322	-0,70377023428402291	6	-0,0998633802	0,000959965982
2	1	0	0	1	2875,0581	1,6871289	1,68760276	-0,094787577434477965	6	-0,113138728	0,000159963776
2	1	0	0	1	2907,5229	2,01177692	2,01233053	0,75044354078213965	6	-0,102816343	0,00151014049
2	1	0	0	1	2939,8577	2,33512473	2,33556557	1,3230525290023026	6	-0,0698101893	0,00309007592
2	1	0	0	1	2972,1626	2,65817356	2,65855646	3,2099036364298285	6	-0,00222905236	0,00853370968
2	1	0	1	0	3004,4141	2,98072076	2,98103428	6,1268219500780109	7	0,124309316	0,0182642657
2	1	0	1	0	3036,7189	3,30376887	3,30418015	4,4693674196799546	7	0,300057113	0,0147675946
2	1	0	1	0	3069,0237	3,62681651	3,62721944	2,5047537538188464	7	0,418181151	0,00908529107
2	0	0	1	0	3101,2389	3,65102029	3,65148401	0,48737193575060013	7	0,458289772	0,00177963078
2	0	0	1	0	3133,5437	3,32797217	3,32848859	0,051322398948724704	7	0,463707864	0,000170826024
2	0	0	1	0	3165,9285	3,00412416	3,00454974	0,15681232967310522	7	0,467436373	0,000471150444
2	0	0	1	0	3198,2333	2,68107629	2,68137217	0,087632894300407245	7	0,471570402	0,000234976396
2	0	0	1	0	3230,6981	2,35642815	2,35688472	-0,58157203719019354	7	0,469303131	0,00137069821
2	0	0	1	0	3263,0429	2,0329802	2,03343105	-2,9559274616616736	7	0,409891486	0,00601067487
2	0	0	1	0	3295,3477	1,70993209	1,71037853	-2,5951542548007466	7	0,310521185	0,00443869596
2	0	0	1	0	3327,6525	1,38688445	1,38721454	-3,8042107533525638	7	0,210163951	0,00527725648
2	0	0	1	0	3359,9573	1,06383634	1,0641706	-4,1092695201988435	7	0,0811556652	0,00437296368
2	1	0	1	1	3392,0925	0,857605875	0,857977271	-3,0395687868197638	7	-0,0475543588	0,00260788086
2	1	0	1	1	3424,3974	1,18065464	1,18114269	-1,2116231030252144	7	-0,107665718	0,00143109972
2	1	0	1	1	3456,7022	1,50370169	1,5041306	-0,5371166401772505	7	-0,13562268	0,000807893579
2	1	0	0	1	3489,2071	1,82875001	1,82916713	0,26953568582043584	7	-0,140755564	0,000493025815
2	1	0	0	1	3521,5419	2,15209794	2,15232658	1,1452625967838178	7	-0,115906686	0,00246497919
2	1	0	0	1	3553,8467	2,47514582	2,47543716	1,9521487965076093	7	-0,0689865276	0,0048324219
2	1	0	1	1	3580,6543	2,74323654	2,74367213	4,1392330842859603	7	0,0100695025	0,0113566983