File: Experimentelles/Ausgewaehlte_Daten/LiS/CV/LiS_NMR_02_CV_C01.mpt
EC-Lab ASCII FILE
Nb header lines : 77

Cyclic Voltammetry

Run on channel : 1 (SN 6985)
Grouped channel(s) : 1
User :
CE vs. WE compliance from -10 V to 10 V
Electrode connection : standard
Ewe ctrl range : min = 0,00 V, max = 5,00 V
Acquisition started on : 09.17.2015 16:13:32
Saved on :
	File : LiS_NMR_02_CV_C01.mpr
	Directory : C:\Gielisch\NeueZelle\LiS-Test\150917\
	Host : 192.168.0.2
Device : VMP3 (SN 0324)
Address : 192.168.0.1
EC-Lab for windows v10.33 (software)
Internet server v10.33 (firmware)
Command interpretor v10.32 (firmware)
Electrode material :
Initial state :
Electrolyte :
Comments :
Mass of active material : 0,001 mg
 at x = 0,000
Molecular weight of active material (at x = 0) : 0,001 g/mol
Atomic weight of intercalated ion : 0,001 g/mol
Acquisition started at : xo = 0,000
Number of e- transfered per intercalated ion : 1
for DX = 1, DQ = 26,801 mA.h
Battery capacity : 0,000 A.h
Electrode surface area : 0,001 cm²
Characteristic mass : 0,001 g
Ei (V)              0,000
vs.                 Eoc
dE/dt               10,000
dE/dt unit          mV/s
E1 (V)              3,000
vs.                 Ref
Step percent        50
N                   10
E range min (V)     0,000
E range max (V)     5,000
I Range             Auto
Bandwidth           5
E2 (V)              1,200
vs.                 Ref
nc cycles           0
Reverse Scan        1
Ef (V)              0,000
vs.                 Eoc

Modify on : 09.17.2015 16:27
E1 (V)              4,000

Modify on : 09.17.2015 16:34
E1 (V)              3,500

Modify on : 09.17.2015 16:35
E2 (V)              1,400

Modify on : 09.17.2015 16:45
E2 (V)              1,500

Number of loops : 8
Loop 0 from point number 0 to 3600
Loop 1 from point number 3601 to 7199
Loop 2 from point number 7200 to 10799
Loop 3 from point number 10800 to 15998
Loop 4 from point number 15999 to 20197
Loop 5 from point number 20198 to 24196
Loop 6 from point number 24197 to 28195
Loop 7 from point number 28196 to 32194

mode	ox/red	error	control changes	counter inc.	time/s	control/V	Ewe/V	<I>/mA	cycle number	(Q-Qo)/C	P/W
2	1	1	1	0	0,0508	2,82128692	2,8214798	0,00010477699106559158	1	0	2,95626165E-007
2	0	0	0	0	29,0808	2,88844681	2,88906193	-0,005150995292179113	1	6,41233273E-005	1,48815443E-005
2	0	0	0	0	58,3256	2,59599948	2,5967958	-0,012551343633310397	1	-0,000164708777	3,25932779E-005
2	0	0	1	0	87,5302	2,30395269	2,30448031	-0,062118762465952717	1	-0,000980064855	0,000143151468
2	0	0	1	0	116,8150	2,0111053	2,01180434	-1,0730535012704365	1	-0,0117777782	0,0021587736
2	0	0	0	0	146,0196	1,71905828	1,71969831	-2,4625689599800998	1	-0,0681228712	0,00423487555
2	0	0	0	0	175,2244	1,42701125	1,42767286	-3,9655770289677293	1	-0,162151963	0,00566154672
2	1	0	0	1	204,2796	1,26358473	1,26422393	-4,6392074862012154	1	-0,295809627	0,00586499693
2	1	0	1	1	233,4842	1,55563188	1,55627179	-2,7643854775362566	1	-0,403643101	0,0043021352
2	1	0	1	1	262,6890	1,8476789	1,84844458	-1,1553628168724206	1	-0,45955795	0,00213562418
2	1	0	1	1	292,0538	2,14132643	2,14182901	0,068588882167306189	1	-0,474989593	0,000146905659
2	1	0	0	1	321,3384	2,43417358	2,43473244	1,2345814433086843	1	-0,455486953	0,00300587551
2	1	0	0	1	350,5432	2,72622085	2,72686505	2,8553212745874106	1	-0,395066351	0,00778607558
2	0	0	1	0	379,6144	2,9834621	2,98398328	2,5051081978060595	2	0,0551191159	0,00747520104
2	0	0	1	0	408,8192	2,69141555	2,691993	0,92184433810136922	2	0,10108564	0,00248159841
2	0	0	1	0	438,1040	2,3985672	2,3992002	-0,045812631108599123	2	0,114588819	0,000109913672
2	0	0	0	0	467,3886	2,10572052	2,10626197	-1,9326664805412291	2	0,087829344	0,00407070201
2	0	0	0	0	496,5934	1,8136735	1,81421852	-3,0968752343345651	2	0,0068908832	0,00561840832
2	0	0	1	0	525,7980	1,52162647	1,52217066	-2,5459594889371485	2	-0,062937595	0,00387538481
2	0	0	1	0	555,0028	1,22957933	1,2303009	-3,41369880956632	2	-0,149401918	0,00419987692
2	1	0	1	1	584,1180	1,46161664	1,46213484	-2,1445198312953638	2	-0,231704831	0,00313557708
2	1	0	0	1	613,3226	1,75366366	1,75431657	-1,054542405185881	2	-0,27837503	0,00185000116
2	1	0	0	1	642,5674	2,04611111	2,0467608	-0,10881054723911299	2	-0,295191675	0,000222709161
2	1	0	0	1	671,9622	2,34005857	2,34065795	1,4065692177801221	2	-0,277242422	0,00329229748
2	1	0	1	1	701,1668	2,63210535	2,63251877	2,7424651974881158	2	-0,215196371	0,00721959118
2	1	0	0	0	730,3206	2,92325258	2,92398739	3,9032312819251302	3	0,0379785337	0,0114129987
2	0	0	1	0	759,3556	2,78643012	2,78696752	1,7916571150223373	3	0,126889974	0,00499329017
2	0	0	1	0	788,6004	2,49398327	2,49459481	0,37038113156126682	3	0,156934828	0,000923950865
2	0	0	1	0	817,9252	2,20073581	2,20133471	-1,3004115444642536	3	0,145398051	0,00286264112
2	0	0	0	0	847,1298	1,90868878	1,90932238	-1,6977814030316195	3	0,0862644389	0,00324161211
2	0	0	0	0	876,3346	1,61664152	1,61730564	-2,1107704755332771	3	0,0312773548	0,00341376103
2	0	0	1	0	905,5392	1,32459462	1,32524443	-2,6695127216754138	3	-0,039301727	0,00353775686
2	1	0	1	1	934,6544	1,36660135	1,36728954	-2,0599261044904083	3	-0,115123756	0,00281651551
2	1	0	1	1	963,8592	1,65864825	1,65918589	-1,1439103956023819	3	-0,160677999	0,00189795997
2	1	0	0	1	993,1038	1,9510957	1,95181751	-0,22401248198002576	3	-0,18015559	0,000437231472
2	1	0	0	1	1022,4686	2,24474311	2,24535799	0,88439247522641293	3	-0,172683179	0,00198577764
2	1	0	1	1	1051,7033	2,53708935	2,53761411	2,6223728660750733	3	-0,119667903	0,00665457034
2	1	0	0	0	1080,8212	2,82823706	2,82890177	3,5713931526299021	4	0,00131319894	0,0101031205
2	1	0	0	0	1110,0260	3,12028432	3,12087345	3,5618311878707693	4	0,10828945	0,0111160241
2	1	0	1	0	1139,2306	3,4123311	3,41308618	2,1741320951669286	4	0,194690883	0,00742050027
2	1	0	1	0	1168,4354	3,70437837	3,70484042	1,8969560210351587	4	0,241363436	0,0070279194
2	1	0	0	0	1197,6400	3,99642563	3,99692822	3,8217041222033626	4	0,326635629	0,015275077
2	0	0	1	0	1226,7554	3,71237969	3,71293569	1,0788258508675632	4	0,393958658	0,00400561094
2	0	0	0	0	1256,1600	3,41833234	3,41904759	-0,32900800690468787	4	0,401762724	0,00112489401
2	0	0	0	0	1285,4048	3,12588525	3,12634897	-1,3094568473321395	4	0,37054494	0,0040938193
2	0	0	0	0	1314,6096	2,83383799	2,83440375	-0,60555905407225613	4	0,343792379	0,00171639887
2	0	0	1	0	1343,8142	2,54179096	2,54243588	-0,76866030410207987	4	0,323764265	0,0019542696
2	0	0	1	0	1373,0190	2,24974394	2,25049067	-1,2816241782296576	4	0,299894899	0,0028842832
2	0	0	0	0	1402,2236	1,95769656	1,95823336	-1,9916094031046966	4	0,25219059	0,00390003598
2	0	0	0	0	1431,4284	1,66564965	1,66625202	-2,4786331300382189	4	0,185420886	0,00413002726
2	1	0	0	1	1460,4536	1,42451084	1,42511094	-2,6873724123945984	4	0,108634889	0,00382980378
2	1	0	1	1	1489,6582	1,71655786	1,71717215	-1,3220310500926438	4	0,0517636389	0,00227015489
2	1	0	1	1	1518,9030	2,00900507	2,00952315	-0,32173889047569658	4	0,0281565674	0,000646541768
2	1	0	0	1	1548,3077	2,30305195	2,30346847	1,1640600993705376	4	0,0377116241	0,00268137571
2	1	0	0	1	1577,5124	2,59509945	2,59570861	2,6820138198909974	4	0,103302859	0,00696172658
2	1	0	1	0	1606,6346	2,88554621	2,88614798	2,7907970638738816	5	0,0176596008	0,00805465318
2	1	0	0	0	1635,8392	3,17759323	3,1781292	1,3321210321176978	5	0,0779219419	0,00423365273
2	1	0	0	0	1665,0440	3,46964049	3,4701457	0,85860384628177139	5	0,105728574	0,00297948043
2	0	0	0	0	1694,1792	3,23900318	3,23958158	0,20172941350136698	5	0,117004268	0,000653518888
2	0	0	1	0	1723,3838	2,94695592	2,94735575	0,15817211987450675	5	0,122632705	0,000466189493
2	0	0	1	0	1752,5886	2,65490937	2,65558839	0,087022596754616653	5	0,126028299	0,000231096201
2	0	0	1	0	1781,9534	2,36126184	2,36199903	-0,48413254844921562	5	0,124555081	0,00114352058
2	0	0	0	0	1811,1980	2,06881452	2,06950545	-2,4946689787838138	5	0,0810366645	0,00516273128
2	0	0	0	0	1840,4028	1,77676761	1,77760005	-2,104936627602136	5	0,0211024042	0,00374173536
2	0	0	0	0	1869,6076	1,48472047	1,48520029	-2,1700825445629946	5	-0,0437305085	0,00322300731
2	1	0	1	1	1898,6426	1,60553992	1,60630977	-1,4782363713063517	5	-0,10054484	0,00237450562
2	1	0	1	1	1927,8474	1,89758694	1,89813066	-0,59594606573658829	5	-0,130476683	0,00113118347
2	1	0	0	1	1957,2521	2,19163346	2,19228077	0,56558282460749075	5	-0,133411959	0,00123991631
2	1	0	0	1	1986,4867	2,48398161	2,48461437	3,016343933288695	5	-0,0873968899	0,00749445148
2	1	0	0	1	2015,6915	2,77602863	2,77652884	2,8993586379068787	5	0,00478648767	0,00805015303
2	1	0	1	0	2044,8477	3,06717587	3,06782365	1,7110080048441888	6	0,0545790084	0,00524907093
2	1	0	1	0	2074,0525	3,35922241	3,35977817	0,81977639167948979	6	0,0886526033	0,00275426684
2	0	0	1	0	2103,1277	3,35002112	3,35051942	0,28704886873149162	6	0,106212109	0,000961762795
2	0	0	0	0	2132,3324	3,05797362	3,05846739	0,19839779142357728	6	0,113236658	0,000606793154
2	0	0	0	0	2161,5371	2,76592731	2,76635289	0,10778379335102661	6	0,117623225	0,000298168015
2	0	0	0	0	2190,8619	2,47268009	2,47315526	-0,038991418917214912	6	0,119598188	9,64318315E-005
2	0	0	1	0	2220,1465	2,17983246	2,18039012	-1,6693711810641786	6	0,0974521488	0,00363988033
2	0	0	1	0	2249,3513	1,88778543	1,88838232	-1,817730577179681	6	0,0415645167	0,00343257026
2	0	0	1	0	2278,5561	1,59573817	1,59649467	-2,345225770164415	6	-0,0204854384	0,0037441405
2	1	0	0	1	2307,5911	1,69455409	1,69508708	-1,2571394192399747	6	-0,0744875595	0,00213096081
2	1	0	0	1	2336,8359	1,9870013	1,98750031	-0,34397616503001459	6	-0,09779834	0,000683652761
2	1	0	0	1	2366,2407	2,28104877	2,28172684	1,1311822118306622	6	-0,0889659226	0,00258104876
2	1	0	1	1	2395,4453	2,57309628	2,57371259	3,1600055043344141	6	-0,0223825276	0,00813294575
2	1	0	1	0	2424,6557	2,86434269	2,86491847	1,8659761360397981	7	0,00748208119	0,00534586934
2	1	0	0	0	2453,8603	3,15638971	3,15695667	1,0607335489110117	7	0,050051745	0,00334868976
2	1	0	0	0	2483,0651	3,44843674	3,4490633	0,72438274254953331	7	0,074177824	0,00249844184
2	0	0	0	0	2512,2203	3,26000643	3,26058435	0,2854815395204	7	0,0873786137	0,000930836657
2	0	0	0	0	2541,4251	2,96795964	2,96837616	0,16938002871487434	7	0,0939817205	0,000502783631
2	0	0	1	0	2570,6297	2,67591262	2,67655087	0,094395266500888474	7	0,0976371095	0,000252653728
2	0	0	1	0	2599,9945	2,38226533	2,38280988	-0,33872661732689082	7	0,0972040519	0,000807121105
2	0	0	1	0	2629,2393	2,089818	2,0904901	-1,445719807926153	7	0,0696270242	0,00302226306
2	0	0	0	0	2658,4439	1,79777086	1,79830396	-1,9973538564862957	7	0,0217312146	0,00359184947
2	0	0	0	0	2687,6487	1,50572395	1,50639427	-1,3325499621806394	7	-0,0346418396	0,00200734567
2	1	0	0	1	2716,7239	1,78496885	1,78574014	-0,44044929542751168	7	-0,055826731	0,000786527991
2	1	0	1	1	2745,9285	2,07701612	2,07756495	-0,1055176466772404	7	-0,0645452365	0,000219219772
2	1	0	1	1	2775,3233	2,37096357	2,37153792	1,6737131297036355	7	-0,0543796308	0,003969274
2	1	0	1	1	2804,5281	2,66301036	2,66359901	1,8863357460057344	7	0,0116872396	0,00502444198
2	1	0	0	0	2833,6725	2,95405746	2,95451546	1,2938123706866182	8	0,0180966984	0,00382258859
2	1	0	0	0	2862,8773	3,24610448	3,24689293	0,74661310541408806	8	0,0468626656	0,00242417282
2	0	0	1	0	2891,9623	3,46303916	3,46347189	0,46297164330327866	8	0,0662845746	0,00160348928
2	0	0	0	0	2921,1670	3,17099142	3,17172599	0,25469811741441274	8	0,0758003518	0,000807832635
2	0	0	0	0	2950,3717	2,87894511	2,8795054	0,14640442897669181	8	0,0815916508	0,000421572331
2	0	0	0	0	2979,5765	2,58689809	2,58759522	0,073455267051165786	8	0,0847537071	0,000190072504
2	0	0	1	0	3008,9411	2,2932508	2,29375196	-0,81520998905654144	8	0,0786645263	0,00186988956
2	0	0	1	0	3038,1859	2,00080371	2,00139213	-0,75288379240643021	8	0,0419272743	0,00150681566
2	0	0	1	0	3067,3907	1,70875657	1,70934415	-1,0052466124848109	8	0,0155750038	0,00171831239
2	1	0	0	1	3096,4257	1,58153594	1,58212614	-1,0888444581241536	8	-0,0196429174	0,00172268925
2	1	0	0	1	3125,6705	1,87398314	1,87457967	-0,3601380115788855	8	-0,0396045335	0,000675107411
2	1	0	1	1	3154,9151	2,16643023	2,16716671	-0,01239302318060287	8	-0,0449092276	2,68577478E-005
2	1	0	1	1	3184,2699	2,45997763	2,46044421	1,7540636349607405	8	-0,0206090733	0,00431577582
2	1	0	1	1	3213,4747	2,75202489	2,75274158	1,4194747696596152	8	0,024488261	0,00390744722
2	1	0	1	1	3220,8241	2,82558775	2,82589054	1,3466201722621918	8	0,0346634127	0,00380540127