File: Experimentelles/Ausgewaehlte_Daten/LiS/CV/LiS_NMR_08_CV_C01.mpt
EC-Lab ASCII FILE
Nb header lines : 68

Cyclic Voltammetry

Run on channel : 1 (SN 6985)
Grouped channel(s) : 1
User :
CE vs. WE compliance from -10 V to 10 V
Electrode connection : standard
Ewe ctrl range : min = 0,00 V, max = 5,00 V
Acquisition started on : 09.17.2015 16:13:32
Saved on :
	File : LiS_NMR_08_CV_C01.mpr
	Directory : C:\Gielisch\NeueZelle\LiS-Test\150917\
	Host : 192.168.0.2
Device : VMP3 (SN 0324)
Address : 192.168.0.1
EC-Lab for windows v10.33 (software)
Internet server v10.33 (firmware)
Command interpretor v10.32 (firmware)
Electrode material :
Initial state :
Electrolyte :
Comments :
Mass of active material : 0,001 mg
 at x = 0,000
Molecular weight of active material (at x = 0) : 0,001 g/mol
Atomic weight of intercalated ion : 0,001 g/mol
Acquisition started at : xo = 0,000
Number of e- transfered per intercalated ion : 1
for DX = 1, DQ = 26,801 mA.h
Battery capacity : 0,000 A.h
Electrode surface area : 0,001 cm²
Characteristic mass : 0,001 g
Ei (V)              0,000
vs.                 Eoc
dE/dt               10,000
dE/dt unit          mV/s
E1 (V)              3,000
vs.                 Ref
Step percent        50
N                   10
E range min (V)     0,000
E range max (V)     5,000
I Range             Auto
Bandwidth           5
E2 (V)              1,200
vs.                 Ref
nc cycles           0
Reverse Scan        1
Ef (V)              0,000
vs.                 Eoc

Modify on : 09.18.2015 10:29
E1 (V)              3,500
E2 (V)              1,500

Number of loops : 7
Loop 0 from point number 0 to 4000
Loop 1 from point number 4001 to 8000
Loop 2 from point number 8001 to 12000
Loop 3 from point number 12001 to 15999
Loop 4 from point number 16000 to 19999
Loop 5 from point number 20000 to 23999
Loop 6 from point number 24000 to 27999

mode	ox/red	error	control changes	counter inc.	time/s	control/V	Ewe/V	<I>/mA	cycle number	(Q-Qo)/C	P/W
2	1	0	0	0	108500,4911	1,7038064	1,70446479	-0,00067978585138916966	1	0	1,15867101E-006
2	1	0	1	0	108526,8303	1,96719837	1,96794474	0,1233327579167165	1	0,00140752213	0,000242712049
2	1	0	0	0	108553,1344	2,23024058	2,23113942	0,51678391166583814	1	0,00893491134	0,00115301693
2	1	0	1	0	108579,4786	2,49368334	2,49451303	1,181176561586284	1	0,0305570662	0,00294646039
2	1	0	1	0	108605,7830	2,75672555	2,75739646	2,4307653238927786	1	0,0767827407	0,00670258375
2	1	0	0	0	108632,0872	3,01976824	3,02039099	3,5477793989358304	1	0,156935051	0,0107156811
2	1	0	1	0	108658,3914	3,28281069	3,28350592	3,8768308637318822	1	0,256640464	0,0127295973
2	0	0	1	0	108684,5662	3,45543861	3,45616841	2,9090814855363654	1	0,350056827	0,0100542754
2	0	0	0	0	108710,8704	3,19239593	3,19306254	1,754833201567319	1	0,408577889	0,00560329203
2	0	0	1	0	108737,1746	2,92935348	2,92985845	1,1763017205176533	1	0,446845621	0,0034463976
2	0	0	1	0	108763,4790	2,66631103	2,66696167	0,64360177089218598	1	0,470730036	0,00171646127
2	0	0	0	0	108789,8832	2,40226841	2,40310001	0,0029454720433232941	1	0,479983479	7,07826393E-006
2	0	0	1	0	108816,2874	2,13822579	2,13895845	-0,67342776425734938	1	0,469863147	0,00144043402
2	0	0	1	0	108842,5918	1,87518346	1,87593281	-0,88540551949430042	1	0,44948864	0,00166096131
2	0	0	0	0	108868,9360	1,61174083	1,61234105	-0,95233341058095706	1	0,424301237	0,0015354862
2	1	0	0	1	108895,0708	1,64954698	1,65011799	-0,56421160401293389	1	0,402424693	0,000931015704
2	1	0	0	0	108921,3224	1,91148925	1,91222596	-0,16030290596945917	2	-0,00633986667	0,000306535367
2	1	0	0	0	108947,7768	2,17603159	2,17670441	0,15689929331549424	2	-0,00654018018	0,00034152338
2	1	0	1	0	108974,1209	2,43947458	2,44009089	1,0268732470770771	2	0,00773286633	0,00250566402
2	1	0	0	0	109000,4251	2,70251703	2,70320153	2,0515108039533597	2	0,048658818	0,00554564735
2	1	0	1	0	109026,7293	2,96555901	2,96626711	1,9291682822836976	2	0,10132537	0,00572242821
2	1	0	1	0	109053,0337	3,22860217	3,2292974	1,9040013336473098	2	0,152585506	0,00614858652
2	1	0	0	0	109079,3379	3,49164414	3,49242544	1,8808420369470547	2	0,203063428	0,00656870054
2	0	0	0	0	109105,5327	3,24640465	3,2470963	0,98621160440423373	2	0,237414479	0,00320232403
2	0	0	1	0	109131,8369	2,98336244	2,98397303	0,58627222685349875	2	0,257680267	0,00174942054
2	0	0	0	0	109158,1811	2,71991944	2,72072887	0,28685668738628144	2	0,269409865	0,000780459261
2	0	0	0	0	109184,6055	2,45567703	2,4563396	-0,04020382068982281	2	0,272710085	9,87542371E-005
2	0	0	1	0	109210,9497	2,19223452	2,19306421	-0,65487968569828173	2	0,26303035	0,00143619324
2	0	0	0	0	109237,2539	1,92919207	1,9299047	-0,59955931351416678	2	0,246485978	0,00115709228
2	0	0	0	0	109263,5583	1,66614962	1,66678989	-0,84815476779584384	2	0,227283642	0,00141369575
2	1	0	0	1	109289,7331	1,5955385	1,5962261	-0,72088252959979648	2	0,204036146	0,00115069153
2	1	0	0	0	109315,9327	1,85708046	1,85784423	-0,34151381799192659	3	-0,00662057986	0,000634479453
2	1	0	1	0	109342,2769	2,12052298	2,1211102	-0,0066537469769913306	3	-0,0110394945	1,41133305E-005
2	1	0	0	0	109368,6911	2,38466573	2,38552642	0,72803312450371469	3	-0,00471381005	0,00173674221
2	1	0	0	0	109395,0254	2,64800811	2,64871693	1,4767056117179251	3	0,0265960228	0,00391137507
2	1	0	1	0	109421,3296	2,91105056	2,91175628	1,2266633180832365	3	0,0632794425	0,00357174454
2	1	0	0	0	109447,6338	3,17409301	3,17471504	0,65538738385118477	3	0,0875999928	0,00208066823
2	1	0	1	0	109473,9381	3,4371357	3,43781304	0,51115982032111341	3	0,10252957	0,00175727194
2	0	0	0	0	109500,1230	3,30101252	3,3017323	0,089773361698808781	3	0,110031575	0,000296407612
2	0	0	1	0	109526,4672	3,03757071	3,03831911	0,017226967326779251	3	0,111290209	5,23410235E-005
2	0	0	0	0	109552,8514	2,77372837	2,77433085	-0,033089957665651814	3	0,111015543	9,18024889E-005
2	0	0	1	0	109579,1956	2,51028585	2,51110029	-0,13721503472576613	3	0,109357215	0,000344560714
2	0	0	1	0	109605,5000	2,24724364	2,24803901	-0,43984670212699405	3	0,101973169	0,000988792512
2	0	0	0	0	109631,8042	1,98420107	1,98483026	-0,41953937985279309	3	0,0913213491	0,000832714431
2	0	0	1	0	109658,1084	1,72115862	1,72195613	-0,6326643819748256	3	0,0778321847	0,00108942029
2	1	0	1	1	109684,2832	1,54052949	1,5412426	-0,79395633618588544	3	0,057645604	0,00122367928
2	1	0	1	0	109710,5390	1,80287182	1,80348444	-0,37207771523820557	4	-0,00430067955	0,000671036367
2	1	0	1	0	109736,8434	2,06591415	2,06676865	-0,065912224007425357	4	-0,0100323455	0,000136225324
2	1	0	0	0	109763,2976	2,33045697	2,33121562	0,3452306743021385	4	-0,00742411753	0,000804807118
2	1	0	1	0	109789,6418	2,59389925	2,59438848	1,2708740496525106	4	0,0160257909	0,00329714105
2	1	0	0	0	109815,9460	2,85694098	2,85764146	0,78591831931954739	4	0,0462111346	0,00224587275
2	1	0	0	0	109842,2903	3,12038422	3,12100577	0,2767521717275183	4	0,0579530373	0,00086374511
2	1	0	1	0	109868,5945	3,38342667	3,38422775	0,29321724510993286	4	0,0652582571	0,000992313959
2	0	0	0	0	109894,8491	3,35402179	3,35462642	0,029959847512482483	4	0,0707148388	0,000100504098
2	0	0	0	0	109921,2335	3,09017944	3,09078526	-0,02007328208613529	4	0,0704260394	6,2042207E-005
2	0	0	1	0	109947,5377	2,82713699	2,82781315	-0,044010300594554522	4	0,0695922524	0,000124452912
2	0	0	0	0	109973,8419	2,56409454	2,5647471	-0,083468838517243072	4	0,0681021959	0,000214076455
2	0	0	1	0	110000,1861	2,30065203	2,30148506	-0,26664566583241546	4	0,0634585321	0,000613681041
2	0	0	1	0	110026,4905	2,03760958	2,03844142	-0,35987117783062758	4	0,0547282547	0,000733576308
2	0	0	0	0	110052,7947	1,77456725	1,77517521	-0,5574802599019417	4	0,0429002903	0,000989625114
2	0	0	1	0	110079,0989	1,51152492	1,51217604	-0,82269019592139699	4	0,0248431694	0,00124405243
2	1	0	1	0	110105,2535	1,74936306	1,75029647	-0,43684697868647635	5	-0,0019800975	0,000764611701
2	1	0	0	0	110131,5577	2,0124054	2,01310825	-0,1154206790788861	5	-0,00913739949	0,000232354316
2	1	0	0	0	110158,0121	2,27694821	2,27750206	0,20574098259762774	5	-0,00818126556	0,000468575512
2	1	0	1	0	110184,3463	2,54029059	2,54085755	1,1467592985265877	5	0,00938850269	0,00291375211
2	1	0	0	0	110210,6505	2,80333304	2,80417728	0,83440140110475264	5	0,039514266	0,00233980943
2	1	0	1	0	110236,9946	3,06677508	3,06752777	0,24691850282512861	5	0,0512781441	0,000757429341
2	1	0	1	0	110263,2990	3,32981801	3,33054996	0,25706448326646035	5	0,0575166009	0,000856166123
2	0	0	0	0	110289,4736	3,40843058	3,40905738	0,071346104921152845	5	0,0635001883	0,000243222967
2	0	0	1	0	110315,8978	3,14418793	3,14475679	-0,026509433730367405	5	0,0633486137	8,3365725E-005
2	0	0	0	0	110342,2021	2,88114667	2,88185716	-0,041589853342210323	5	0,0625042915	0,000119856013
2	0	0	0	0	110368,5064	2,61810327	2,61875033	-0,062577017850277133	5	0,0611787662	0,000163873585
2	0	0	1	0	110394,8506	2,35466075	2,3554883	-0,19829266470063757	5	0,0578601137	0,000467076054
2	0	0	0	0	110421,1548	2,0916183	2,09227061	-0,34729546291270752	5	0,0502700098	0,000726636092
2	0	0	0	0	110447,4592	1,82857585	1,82928956	-0,49825200541979539	5	0,0395736471	0,000911447161
2	0	0	1	0	110473,7634	1,56553364	1,56625938	-0,78778258428254234	5	0,0228639618	0,00123387191
2	1	0	1	1	110499,9782	1,69655466	1,69728661	-0,48707287586121952	5	0,00556848384	0,000826702279
2	1	0	0	0	110526,1702	1,95769668	1,95837009	-0,16271632618305264	6	-0,00770157343	0,0003186588
2	1	0	1	0	110552,6244	2,22223949	2,22315574	0,13192901099790605	6	-0,00814228319	0,000293298741
2	1	0	0	0	110578,9287	2,48528242	2,48591447	0,97415055981453952	6	0,00421273941	0,00242165499
2	1	0	0	0	110605,2730	2,74872422	2,74942589	1,0011653718021077	6	0,0344227403	0,00275263004
2	1	0	1	0	110631,6172	3,01216722	3,01283908	0,25905921768948925	6	0,048690632	0,000780503731
2	1	0	0	0	110657,9213	3,27520895	3,27597618	0,22835724014374941	6	0,0544990711	0,000748092891
2	0	0	0	0	110684,0561	3,46343875	3,46419644	0,15349902638701174	6	0,0607604906	0,000531750789
2	0	0	1	0	110710,4803	3,19919682	3,19987893	-0,033001578300846048	6	0,0612548105	0,000105601051
2	0	0	0	0	110736,7845	2,93615484	2,93672395	-0,038563921405174726	6	0,0604023375	0,00011325159
2	0	0	1	0	110763,0887	2,67311192	2,67380953	-0,054155457376812819	6	0,059179008	0,000144801379
2	0	0	1	0	110789,4331	2,40966964	2,4105072	-0,15405442286282912	6	0,0567635447	0,000371349306
2	0	0	0	0	110815,7373	2,14662695	2,14741039	-0,33046802930119987	6	0,0501345247	0,000709650456
2	0	0	1	0	110842,0415	1,8835845	1,88424206	-0,45086932823889958	6	0,0404774547	0,000849546923
2	0	0	0	0	110868,3457	1,62054253	1,62113607	-0,67537505938499366	6	0,0253638569	0,00109487493
2	1	0	0	1	110894,5605	1,64154565	1,64227664	-0,53095220477768467	6	0,00720288977	0,000871970376
2	1	0	1	0	110920,7767	1,90358782	1,90438914	-0,21126928632320064	7	-0,00646056142	0,000402338948
2	1	0	1	0	110947,2011	2,16783071	2,16857767	0,076663172320910797	7	-0,00820247456	0,000166250044
2	1	0	0	0	110973,5453	2,43127322	2,43183112	0,76894378110214528	7	7,59784089E-005	0,00186994136
2	1	0	1	0	110999,8895	2,6947155	2,69536018	1,1192070564462178	7	0,0287490804	0,00301666604
2	1	0	1	0	111026,2339	2,95815778	2,95884037	0,29693727985162342	7	0,0464257076	0,000878589984
2	1	0	0	0	111052,5381	3,22120047	3,22194195	0,20643438916239632	7	0,0522417203	0,000665119616
2	1	0	1	0	111078,8422	3,48424292	3,48489618	0,25677528911856634	7	0,0582110621	0,000894835219
2	0	0	1	0	111105,0970	3,25320554	3,25369501	-0,028322319286461229	7	0,0598955452	9,2152186E-005
2	0	0	0	0	111131,4012	2,99016356	2,99075818	-0,035877476230746438	7	0,0590260364	0,000107300853
2	0	0	1	0	111157,7054	2,72712088	2,72782636	-0,050305072502750458	7	0,0578753799	0,000137223498
2	0	0	0	0	111184,0496	2,4636786	2,46454191	-0,11535529254211331	7	0,0560102053	0,000284297945
2	0	0	0	0	111210,3540	2,20063591	2,20128012	-0,29298818428759258	7	0,0506352261	0,00064494909
2	0	0	1	0	111236,6582	1,93759322	1,93830299	-0,41681777403035091	7	0,0417841636	0,000807919132
2	0	0	0	0	111262,9624	1,67455113	1,67538416	-0,68148245248530163	7	0,0281310249	0,0011417449
2	1	0	0	1	111289,1772	1,58753705	1,58837569	-0,63020823350934669	7	0,00937303156	0,00100100739
2	1	0	0	1	111301,1618	1,707407	1,70847464	-0,42406779069166899	7	0,00322724134	0,000724509067