File: Experimentelles/Rohdaten/Batteriemessungen/AlteZelle/150511_LLTO_LTO_Tests/LTO_Aufladen/ECLab-Export/LTO_LP30_Li_Aufladen_02_PEIS_C03.mpt
EC-Lab ASCII FILE
Nb header lines : 68

Potentio Electrochemical Impedance Spectroscopy

Run on channel : 3 (SN 6987)
Grouped channel(s) : 3
User :
CE vs. WE compliance from -10 V to 10 V
Electrode connection : standard
Ewe ctrl range : min = -5,00 V, max = 5,00 V
Acquisition started on : 05.11.2015 15:06:40
Saved on :
	File : LTO_LP30_Li_Aufladen_02_PEIS_C03.mpr
	Directory : C:\Hupfer\150511_LLTO_LTO_Tests\LTO_Aufladen\
	Host : 192.168.0.2
Device : VMP3 (SN 0324)
Address : 192.168.0.1
EC-Lab for windows v10.33 (software)
Internet server v10.33 (firmware)
Command interpretor v10.32 (firmware)
Electrode material :
Initial state :
Electrolyte :
Comments :
Mass of active material : 0,001 mg
 at x = 0,000
Molecular weight of active material (at x = 0) : 0,001 g/mol
Atomic weight of intercalated ion : 0,001 g/mol
Acquisition started at : xo = 0,000
Number of e- transfered per intercalated ion : 1
for DX = 1, DQ = 26,801 mA.h
Battery capacity : 0,000 A.h
Electrode surface area : 0,001 cm²
Characteristic mass : 0,001 g
Multi Sine          0
E (V)               0,0000
vs.                 Eoc
tE (h:m:s)          0:00:0,0000
record              0
dI                  0,000
unit dI             mA
dt (s)              0,000
fi                  1,000
unit fi             MHz
ff                  1,000
unit ff             Hz
Sel Nd              1
Nd                  6
Nt                  51
Log                 1
Va (mV)             10,0
pw                  0,10
Na                  2
E range min (V)     -5,000
E range max (V)     5,000
I Range             Auto
Bandwidth           5
corr                0
nc cycles           0
goto Ns'            0
nr cycles           0
inc. cycle          0

Number of loops : 1
Loop 0 from point number 0 to 36

freq/Hz	Re(Z)/Ohm	-Im(Z)/Ohm	|Z|/Ohm	Phase(Z)/deg	time/s	<Ewe>/V	<I>/mA	Cs/µF	Cp/µF	cycle number	I Range	|Ewe|/V	|I|/A	Re(Y)/Ohm-1	Im(Y)/Ohm-1	|Y|/Ohm-1	Phase(Y)/deg
1000024,25	20,7894249	-4,52021742	21,2751637	12,266818	295203,5226	1,29458904	0,00292379037	-0,0352087244	-0,00158936309	1	10	0,000481505005	2,26322591E-005	0,0459300242	-0,00998650398	0,0470031649	-12,266818
681286,5	17,3691044	-1,95196986	17,4784431	6,41209459	295204,7546	1,29519153	0,00964991283	-0,119678803	-0,0014926499	1	10	0,00206244341	0,000117999269	0,0568554252	-0,00638951082	0,0572133325	-6,41209459
464160,125	17,1576862	-0,788736224	17,175806	2,63202524	295205,9866	1,29534531	0,00982521009	-0,434730917	-0,000916747726	1	10	0,00673094485	0,00039188526	0,0581600107	-0,00267360662	0,0582214296	-2,63202524
316223,094	17,1466293	0,106847316	17,1469631	-0,35702765	295206,3006	1,29532111	0,0104499003	4,71045589	0,000182900854	1	10	0,0106061678	0,000618544989	0,0583182313	0,000363403553	0,0583193637	0,35702765
215441,859	17,2299461	0,825874507	17,2497272	-2,74423003	295206,7166	1,2953018	0,010444303	0,894490957	0,0020504049	1	10	0,010165791	0,000589330506	0,0579054505	0,00277555338	0,057971932	2,74423003
146777,328	17,4352226	1,53105044	17,5023174	-5,01847792	295207,1326	1,29531705	0,00997065846	0,708225667	0,00541950436	1	10	0,0101634469	0,0005806915	0,0569162667	0,00499802455	0,0571352914	5,01847792
100024,406	17,7348099	2,35723901	17,8907814	-7,57114506	295207,5486	1,29501355	-0,00710290717	0,675010502	0,011718153	1	10	0,00995016377	0,000556161511	0,0554074161	0,00736452918	0,0558947064	7,57114506
68127,4297	18,0804596	3,31344533	18,3815651	-10,3848553	295207,8626	1,29531872	0,0107035013	0,705047429	0,0229093619	1	10	0,0105558066	0,000574260484	0,0535111763	0,00980651844	0,0544023328	10,3848553
46411,125	18,5891132	4,56447077	19,141304	-13,7957745	295208,1766	1,2953186	0,0102876639	0,751290083	0,0427213982	1	10	0,0103414347	0,000540268025	0,0507359318	0,0124579724	0,0522430465	13,7957745
31628,4121	19,4106865	6,20570564	20,3785553	-17,729372	295208,4906	1,29531264	0,00942988228	0,810870707	0,0751946867	1	10	0,0102417385	0,000502574316	0,0467405804	0,0149432281	0,0490711927	17,729372
21545,4082	20,680645	8,26102161	22,2695656	-21,7745686	295208,8046	1,29531193	0,0101869693	0,894193769	0,123048313	1	10	0,0100596929	0,000451723812	0,0417004339	0,0166575164	0,0449043326	21,7745686
14672,8496	22,6819878	10,7587757	25,1042595	-25,3764458	295209,0166	1,29531789	0,00941496436	1,00819099	0,185171306	1	10	0,0103626419	0,000412784197	0,0359903686	0,0170713551	0,0398338772	25,3764458
10015,2705	25,7189293	13,4468899	29,0220985	-27,6023769	295209,2688	1,2953589	0,0112834321	1,18177724	0,253700703	1	10	0,0104105175	0,000358710007	0,0305348132	0,0159648284	0,0344565026	27,6023769
6856,00244	29,8424549	15,7356501	33,7369652	-27,8022671	295209,6192	1,29536211	0,00964245666	1,47524595	0,320938498	1	10	0,0103788022	0,000307638897	0,0262193866	0,0138252396	0,0296410769	27,8022671
4642,42725	34,7234039	17,3231258	38,8047104	-26,5141048	295210,0704	1,29536092	0,00974501763	1,97901356	0,394395918	1	10	0,00968632661	0,000249617297	0,0230596885	0,0115042254	0,0257700682	26,5141048
3160,05566	39,9019661	18,1820774	43,8492279	-24,4972706	295210,7664	1,2953459	0,00119576615	2,77001357	0,47626099	1	11	0,0103565352	0,000236185122	0,0207524989	0,00945626479	0,0228054188	24,4972706
2152,93286	44,5590897	18,6984787	48,3233452	-22,7645435	295211,2179	1,29535818	0,00121422985	3,95351458	0,591945767	1	11	0,0103761135	0,00021472259	0,0190819316	0,00800741371	0,0206939317	22,7645435
1468,58972	49,0316162	19,4238453	52,7388382	-21,6109638	295211,6689	1,29535556	0,00112396106	5,57936096	0,75682205	1	11	0,010355833	0,000196360663	0,0176284891	0,00698351534	0,0189613588	21,6109638
999,040405	53,7973785	20,4779224	57,5630379	-20,8392811	295212,1199	1,29535377	0,00111939129	7,77949142	0,984544992	1	11	0,0103305168	0,000179464419	0,0162358005	0,00618014298	0,0173722599	20,8392811
681,089661	59,1071968	21,706953	62,9670753	-20,165617	295212,5704	1,2953527	0,00105476694	10,7650728	1,27934492	1	11	0,0103052184	0,000163660428	0,0149077913	0,00547484448	0,0158813149	20,165617
464,553894	65,1812668	22,6436195	69,0023956	-19,15695	295213,0219	1,29535365	0,000966362888	15,1299744	1,62930179	1	11	0,0102900099	0,000149125408	0,0136897154	0,00475573307	0,01449225	19,15695
316,315765	71,7883987	22,8310394	75,3314743	-17,6423512	295213,4709	1,29535019	0,000893999124	22,0380726	2,02428675	1	11	0,0102745406	0,000136391071	0,0126503156	0,00402321061	0,0132746641	17,6423512
215,344498	78,4962387	21,9304676	81,5021744	-15,6094294	295213,9214	1,29535317	0,000858283369	33,7006645	2,44003367	1	11	0,0102719031	0,000126032261	0,0118170874	0,00330148661	0,0122696115	15,6094294
146,737289	84,4692459	20,0072727	86,8063583	-13,3254299	295214,3684	1,29535067	0,000873763347	54,2115402	2,87981415	1	11	0,0102635929	0,000118235497	0,0112097394	0,00265512383	0,0115198931	13,3254299
99,9040375	89,4706116	17,4669247	91,1596603	-11,0466423	295214,8199	1,29535186	0,0010717375	91,2054214	3,34848332	1	11	0,0102592353	0,000112541391	0,0107665118	0,00210189517	0,0109697646	11,0466423
68,1888962	93,3333435	15,0648079	94,5413208	-9,1689539	295215,2820	1,29535174	0,00108283444	154,932617	3,93393087	1	11	0,010260229	0,000108526394	0,0104422355	0,00168546697	0,0105773853	9,1689539
46,3802681	96,2961121	12,8665314	97,151886	-7,61045647	295215,7208	1,29535568	0,000902764499	266,701447	4,67784548	1	11	0,0102588478	0,000105595973	0,0102024917	0,00136319827	0,0102931606	7,61045647
31,5869217	98,7122421	11,1755934	99,3428421	-6,4591732	295216,1507	1,29535103	0,000905655383	450,860565	5,70571756	1	11	0,0102573093	0,000103251623	0,0100022536	0,00113239372	0,0100661507	6,4591732
21,5220375	100,66436	10,0462646	101,164421	-5,6992259	295216,5726	1,29535437	0,000869473733	736,092041	7,25915003	1	11	0,0102545246	0,000101364931	0,00983603671	0,000981632737	0,00988489855	5,6992259
14,6851501	102,449654	9,11972237	102,854759	-5,08686876	295217,0330	1,29534984	0,000994617818	1188,39319	9,34274673	1	11	0,0102576669	9,97296302E-005	0,0096841557	0,000862050743	0,00972244795	5,08686876
9,9904108	104,170502	8,66133308	104,529961	-4,75296736	295217,4839	1,29535198	0,00105579093	1839,29785	12,6281567	1	11	0,0102588506	9,81426783E-005	0,00953373685	0,000792689621	0,00956663489	4,75296736
6,81718969	105,868736	8,43804455	106,204475	-4,55700636	295218,0164	1,29535139	7,01216413E-005	2766,76904	17,4650936	1	12	0,0102587482	9,65943109E-005	0,00938603375	0,000748094055	0,00941579882	4,55700636
4,63925123	107,455986	8,78188801	107,81424	-4,67213964	295218,5013	1,29535949	0,000524859002	3906,46851	25,9183826	1	12	0,0102643352	9,52038899E-005	0,00924439263	0,000755502086	0,00927521288	4,67213964
3,16039586	108,776878	9,29875851	109,173607	-4,88603401	295219,1952	1,29535818	0,000196859008	5415,68848	39,2887573	1	12	0,0102573307	9,39543097E-005	0,00912643783	0,000780170783	0,0091597233	4,88603401
2,1522038	110,471947	10,7328205	110,992088	-5,54911375	295220,2005	1,29536414	-0,000389820867	6890,05762	64,426796	1	12	0,0102622285	9,24591004E-005	0,00896742847	0,000871223921	0,00900965091	5,54911375
1,46630979	111,84626	12,7046194	112,565506	-6,48045254	295221,6620	1,29536366	-0,000538488443	8543,43945	108,829193	1	12	0,01025993	9,11463067E-005	0,00882695336	0,00100265385	0,00888371654	6,48045254
0,998529792	113,898682	15,3351088	114,926392	-7,66808605	295223,7948	1,29536879	0,000144541351	10393,75	185,057388	1	12	0,010260514	8,92790049E-005	0,00862341281	0,00116104051	0,00870122202	7,66808605